**Manufacturer reference [X135471] 
=> Used on CM13 [TT06]**


Thermometre :	CX_LS_X135471
Environment :	VA
Date :	18/12/2019
Function :	 logT = Sum ( Ai / logR^i )
Coefficients :	
A0=	-1.530951364682035E+3
A1=	39.397917032365840E+3
A2=	-427.761632833046370E+3
A3=	2.610414994164765E+6
A4=	-9.957099113293527E+6
A5=	24.767878775031779E+6
A6=	-40.343085771118335E+6
A7=	41.614932627180763E+6
A8=	-24.720873119774066E+6
A9=	6.453882625213313E+6
Rmes(Ohm)	Tmes(K)	Tfit(K)	dT(mK)	Courant(A)
9.691029E+2	9.9363	9.9392	-2.8909	1E-5
8.992539E+2	10.9415	10.9390	2.5440	1E-5
8.417981E+2	11.9342	11.9308	3.3511	1E-5
7.929544E+2	12.9270	12.9248	2.1706	1E-5
7.508232E+2	13.9195	13.9182	1.2679	1E-5
7.138683E+2	14.9117	14.9139	-2.2488	1E-5
6.781929E+2	16.0028	16.0060	-3.1581	1E-5
6.491030E+2	17.0039	17.0077	-3.7909	1E-5
6.229524E+2	18.0036	18.0070	-3.3917	1E-5
5.992840E+2	19.0007	19.0034	-2.7466	1E-5
5.776860E+2	19.9974	19.9991	-1.6620	1E-5
5.577463E+2	20.9996	21.0004	-0.8178	1E-5
5.394357E+2	21.9983	21.9976	0.7175	1E-5
5.224791E+2	22.9963	22.9946	1.6651	1E-5
5.067307E+2	23.9935	23.9907	2.7675	1E-5
4.920389E+2	24.9906	24.9870	3.6294	1E-5
4.656635E+2	26.9656	26.9583	7.3318	1E-5
4.418848E+2	28.9708	28.9674	3.3517	1E-5
3.787469E+2	35.7072	35.7016	5.5885	1E-5
3.510252E+2	39.5132	39.5186	-5.3645	1E-5
2.845298E+2	52.0325	52.0510	-18.4710	1E-5
2.510211E+2	61.1212	61.1353	-14.0688	1E-5
2.267039E+2	69.5559	69.5544	1.5131	1E-5
2.020515E+2	80.3367	80.3171	19.5807	1E-4
1.826253E+2	90.9978	90.9767	21.1185	1E-4
1.694817E+2	99.6583	99.6426	15.6673	1E-4
1.558102E+2	110.2650	110.2616	3.3928	1E-4
1.463650E+2	118.7718	118.7822	-10.3790	1E-4
1.373888E+2	127.9609	127.9782	-17.3071	1E-4
1.293440E+2	137.2850	137.3102	-25.2274	1E-4
1.216924E+2	147.3161	147.3333	-17.1683	1E-4
1.151093E+2	157.0168	157.0262	-9.3724	1E-4
1.094209E+2	166.3444	166.3484	-3.9853	1E-4
1.040830E+2	176.0529	176.0376	15.2541	1E-4
9.870562E+1	186.9116	186.8865	25.1232	1E-4
9.439489E+1	196.5366	196.5102	26.3704	1E-4
9.133724E+1	203.9352	203.9139	21.2873	1E-4
8.750370E+1	213.9792	213.9695	9.6505	1E-4
8.154504E+1	231.5831	231.6040	-20.9199	1E-4
7.801132E+1	243.3932	243.4286	-35.3884	1E-4
7.504219E+1	254.2650	254.2921	-27.1315	1E-4
7.090991E+1	271.0525	271.0600	-7.5487	1E-4
6.664783E+1	290.8496	290.8040	45.5723	1E-4
6.473198E+1	300.7339	300.6937	40.1959	1E-4
6.290780E+1	310.8012	310.8473	-46.1014	1E-4
