**Manufacturer reference [X134479] 
=> Used on CM13 [TT12]**


Thermometre :	CX_LS_X134479
Environment :	VA
Date :	02/07/2019
Function :	 logT = Sum ( Ai / logR^i )
Coefficients :	
A0=	-769.849967000937450E+0
A1=	21.738427123667916E+3
A2=	-258.054384416851830E+3
A3=	1.717471830388096E+6
A4=	-7.131524888767712E+6
A5=	19.285910193616141E+6
A6=	-34.119576510082148E+6
A7=	38.198053344574064E+6
A8=	-24.611987390361685E+6
A9=	6.965740063285994E+6
Rmes(Ohm)	Tmes(K)	Tfit(K)	dT(mK)	Courant(A)
2.122031E+3	9.9284	9.9303	-1.9256	1E-5
1.932910E+3	10.9359	10.9329	2.9508	1E-5
1.654678E+3	12.9186	12.9167	1.9341	1E-5
1.547095E+3	13.9108	13.9111	-0.2616	1E-5
1.454434E+3	14.9030	14.9047	-1.7104	1E-5
1.294682E+3	17.0006	17.0031	-2.4981	1E-5
1.175086E+3	18.9965	18.9985	-2.0060	1E-5
1.123904E+3	19.9947	19.9972	-2.4904	1E-5
1.034981E+3	21.9919	21.9915	0.3844	1E-5
9.600862E+2	23.9872	23.9846	2.6306	1E-5
8.958315E+2	25.9870	25.9816	5.4291	1E-5
6.523096E+2	37.3751	37.3736	1.5055	1E-5
6.505746E+2	37.4884	37.4868	1.6159	1E-5
6.489064E+2	37.5970	37.5962	0.7948	1E-5
6.472116E+2	37.7097	37.7080	1.7324	1E-5
4.784682E+2	52.9100	52.9244	-14.3723	1E-5
4.212662E+2	60.8992	60.9088	-9.5609	1E-5
3.715323E+2	69.8698	69.8701	-0.2786	1E-5
3.270505E+2	80.2098	80.2006	9.1907	1E-4
2.904893E+2	91.0618	91.0443	17.5314	1E-4
2.660022E+2	99.9571	99.9448	12.2626	1E-4
2.417918E+2	110.4710	110.4675	3.5351	1E-4
2.248577E+2	119.1218	119.1246	-2.8015	1E-4
2.094015E+2	128.1802	128.1942	-14.0473	1E-4
1.955740E+2	137.4467	137.4631	-16.3635	1E-4
1.826108E+2	147.3423	147.3609	-18.5812	1E-4
1.713187E+2	157.1337	157.1402	-6.5070	1E-4
1.616951E+2	166.5012	166.5004	0.7637	1E-4
1.526279E+2	176.3588	176.3534	5.3663	1E-4
1.453660E+2	185.1106	185.1000	10.6349	1E-4
1.392649E+2	193.1561	193.1344	21.6977	1E-4
1.326901E+2	202.6195	202.6039	15.5750	1E-4
1.268369E+2	211.8653	211.8507	14.5984	1E-4
1.179441E+2	227.6520	227.6503	1.6888	1E-4
1.140237E+2	235.3818	235.4008	-18.9622	1E-4
1.065208E+2	251.7967	251.8386	-41.8527	1E-4
1.020500E+2	262.7828	262.7991	-16.3188	1E-4
9.609803E+1	279.0243	279.0170	7.3311	1E-4
9.389675E+1	285.5874	285.5606	26.8093	1E-4
9.043683E+1	296.5767	296.5444	32.3294	1E-4
8.646490E+1	310.3692	310.3970	-27.7688	1E-4
