Thermometre :	CX_LS_X106595
Environment :	VA
Date :	14/10/2015
Function :	 logT = Sum ( Ai / logR^i )
Coefficients :	
A0=	1.200120026705956E+3
A1=	-20.575499647302804E+3
A2=	150.502238386800800E+3
A3=	-607.128330007492800E+3
A4=	1.441543208927994E+6
A5=	-1.920066256231903E+6
A6=	984.756281883367570E+3
A7=	772.121096266286330E+3
A8=	-1.334321257387324E+6
A9=	539.739394977296470E+3
Rmes(Ohm)	Tmes(K)	Tfit(K)	dT(mK)	Courant(A)
1.246466E+3	9.9309	9.9343	-3.3660	1E-5
1.147918E+3	10.9373	10.9343	3.0305	1E-5
1.067629E+3	11.9294	11.9253	4.1044	1E-5
9.997893E+2	12.9213	12.9191	2.1710	1E-5
9.415268E+2	13.9140	13.9140	0.0104	1E-5
8.908524E+2	14.9063	14.9079	-1.5579	1E-5
8.422004E+2	15.9945	15.9968	-2.2763	1E-5
8.023835E+2	17.0002	17.0039	-3.7062	1E-5
7.669263E+2	17.9991	18.0033	-4.2077	1E-5
7.349285E+2	18.9969	19.0006	-3.6650	1E-5
7.058075E+2	19.9953	19.9978	-2.4867	1E-5
6.791481E+2	20.9936	20.9954	-1.8260	1E-5
6.546634E+2	21.9912	21.9919	-0.6644	1E-5
6.320478E+2	22.9889	22.9885	0.4422	1E-5
6.110932E+2	23.9879	23.9845	3.4103	1E-5
5.915246E+2	24.9889	24.9845	4.4330	1E-5
5.733164E+2	25.9881	25.9817	6.4092	1E-5
5.562852E+2	26.9845	26.9784	6.0727	1E-5
5.403073E+2	27.9813	27.9750	6.2578	1E-5
4.031511E+2	39.9995	40.0044	-4.8714	1E-5
4.018596E+2	40.1543	40.1585	-4.1746	1E-5
3.223114E+2	52.0876	52.1025	-14.9211	1E-5
2.790805E+2	61.5021	61.5106	-8.5145	1E-5
2.450143E+2	71.2929	71.2888	4.0690	1E-5
2.190676E+2	80.7990	80.7826	16.3822	1E-4
2.007049E+2	88.9942	88.9769	17.2923	1E-4
1.820289E+2	98.9917	98.9829	8.8012	1E-4
1.670319E+2	108.5955	108.6006	-5.1092	1E-4
1.536555E+2	118.7056	118.7137	-8.0986	1E-4
1.429149E+2	128.1394	128.1533	-13.8679	1E-4
1.321900E+2	139.0341	139.0469	-12.7664	1E-4
1.231423E+2	149.6381	149.6518	-13.6727	1E-4
1.168872E+2	157.9029	157.9073	-4.4362	1E-4
1.089913E+2	169.6484	169.6394	8.9581	1E-4
1.063413E+2	173.9705	173.9583	12.1899	1E-4
9.919669E+1	186.7435	186.7364	7.0782	1E-4
9.440230E+1	196.4037	196.3919	11.7921	1E-4
9.135089E+1	203.0752	203.0691	6.1385	1E-4
8.726959E+1	212.7522	212.7423	9.9223	1E-4
8.419290E+1	220.6800	220.6699	10.0808	1E-4
7.954726E+1	233.8290	233.8420	-12.9565	1E-4
7.653672E+1	243.2476	243.2673	-19.6903	1E-4
7.271818E+1	256.3747	256.4019	-27.1751	1E-4
6.892535E+1	270.9718	270.9804	-8.5982	1E-4
6.666687E+1	280.5285	280.5151	13.4342	1E-4
6.438682E+1	290.9213	290.8978	23.5239	1E-4
6.233119E+1	301.0415	301.0146	26.8548	1E-4
6.047046E+1	310.8708	310.9011	-30.2629	1E-4
