Thermometre :	CX_LS_X106793
Environment :	VA
Date :	14/10/2015
Function :	 logT = Sum ( Ai / logR^i )
Coefficients :	
A0=	-663.587916904290070E+0
A1=	21.188144922820280E+3
A2=	-257.861766604398200E+3
A3=	1.686225879143726E+6
A4=	-6.728793800768301E+6
A5=	17.262140255873453E+6
A6=	-28.734063994247086E+6
A7=	30.101874483388066E+6
A8=	-18.080139725783959E+6
A9=	4.757046171908600E+6
Rmes(Ohm)	Tmes(K)	Tfit(K)	dT(mK)	Courant(A)
9.641294E+2	9.9308	9.9347	-3.8752	1E-5
8.947285E+2	10.9373	10.9337	3.6330	1E-5
8.377203E+2	11.9295	11.9249	4.6268	1E-5
7.892605E+2	12.9213	12.9189	2.3954	1E-5
7.474206E+2	13.9140	13.9138	0.1633	1E-5
7.108343E+2	14.9063	14.9082	-1.8622	1E-5
6.755190E+2	15.9949	15.9982	-3.3371	1E-5
6.465386E+2	17.0003	17.0045	-4.2374	1E-5
6.206066E+2	17.9993	18.0037	-4.4190	1E-5
5.971063E+2	18.9969	19.0010	-4.0995	1E-5
5.756413E+2	19.9954	19.9981	-2.6936	1E-5
5.559179E+2	20.9937	20.9957	-1.9836	1E-5
5.377409E+2	21.9916	21.9920	-0.4352	1E-5
5.208929E+2	22.9894	22.9887	0.7299	1E-5
5.052308E+2	23.9887	23.9848	3.8993	1E-5
4.905689E+2	24.9892	24.9842	5.0432	1E-5
4.768727E+2	25.9886	25.9816	6.9843	1E-5
4.640244E+2	26.9853	26.9786	6.7368	1E-5
4.519364E+2	27.9824	27.9754	7.0292	1E-5
3.465207E+2	40.0110	40.0167	-5.7382	1E-5
3.455149E+2	40.1667	40.1707	-3.9798	1E-5
2.827869E+2	52.1046	52.1222	-17.6288	1E-5
2.481147E+2	61.5121	61.5216	-9.4830	1E-5
2.203863E+2	71.3047	71.3014	3.2886	1E-5
1.990081E+2	80.8160	80.8001	15.8880	1E-4
1.837311E+2	89.0190	88.9982	20.7588	1E-4
1.680637E+2	99.0120	99.0002	11.7895	1E-4
1.553608E+2	108.6173	108.6171	0.2307	1E-4
1.439271E+2	118.7285	118.7334	-4.9430	1E-4
1.346569E+2	128.1752	128.1925	-17.2579	1E-4
1.253592E+2	139.0532	139.0713	-18.1039	1E-4
1.174447E+2	149.6545	149.6736	-19.0537	1E-4
1.119324E+2	157.9221	157.9361	-13.9963	1E-4
1.049425E+2	169.6651	169.6600	5.0691	1E-4
1.025831E+2	173.9877	173.9805	7.2154	1E-4
9.620572E+1	186.7557	186.7387	16.9974	1E-4
9.189648E+1	196.4166	196.3923	24.2995	1E-4
8.914286E+1	203.0876	203.0703	17.3427	1E-4
8.544810E+1	212.7596	212.7419	17.7027	1E-4
8.264089E+1	220.7165	220.7026	13.8530	1E-4
7.840832E+1	233.8332	233.8553	-22.1415	1E-4
7.565155E+1	243.2369	243.2701	-33.1999	1E-4
7.213301E+1	256.3696	256.4122	-42.6183	1E-4
6.862502E+1	270.9604	270.9740	-13.6007	1E-4
6.652872E+1	280.5069	280.4888	18.1194	1E-4
6.440443E+1	290.8995	290.8579	41.6211	1E-4
6.248069E+1	301.0291	300.9878	41.3146	1E-4
6.074056E+1	310.8304	310.8785	-48.0780	1E-4
