**Manufacturer reference [X139178] 
=> Used on CM06 [TT09]**


Thermometre :	CX_LS_X139178
Environment :	VA
Date :	18/12/2019
Function :	 logT = Sum ( Ai / logR^i )
Coefficients :	
A0=	880.262084941205330E+0
A1=	-13.650826678389734E+3
A2=	84.076867136475237E+3
A3=	-236.684032254443820E+3
A4=	118.323026008060550E+3
A5=	1.218483032081530E+6
A6=	-3.957185020414284E+6
A7=	5.752318477083658E+6
A8=	-4.248414864964917E+6
A9=	1.293993402656326E+6
Rmes(Ohm)	Tmes(K)	Tfit(K)	dT(mK)	Courant(A)
1.237522E+3	9.9366	9.9395	-2.9043	1E-5
1.140458E+3	10.9418	10.9393	2.5117	1E-5
1.061170E+3	11.9345	11.9310	3.5363	1E-5
9.941297E+2	12.9273	12.9250	2.2940	1E-5
9.365462E+2	13.9197	13.9193	0.3695	1E-5
8.863788E+2	14.9119	14.9137	-1.8005	1E-5
8.380128E+2	16.0045	16.0075	-3.0441	1E-5
7.988099E+2	17.0050	17.0091	-4.1297	1E-5
7.637173E+2	18.0047	18.0076	-2.9098	1E-5
7.320022E+2	19.0029	19.0052	-2.3019	1E-5
7.031641E+2	20.0004	20.0017	-1.3356	1E-5
6.766956E+2	21.0003	21.0012	-0.9205	1E-5
6.524041E+2	21.9995	21.9988	0.6649	1E-5
6.299744E+2	22.9980	22.9963	1.6859	1E-5
6.091768E+2	23.9964	23.9940	2.3667	1E-5
5.898430E+2	24.9949	24.9911	3.7950	1E-5
5.551310E+2	26.9787	26.9723	6.3870	1E-5
5.242353E+2	28.9795	28.9757	3.7599	1E-5
4.418273E+2	35.8008	35.7965	4.2975	1E-5
4.069466E+2	39.5605	39.5667	-6.2121	1E-5
3.231064E+2	52.1059	52.1198	-13.8616	1E-5
2.816393E+2	61.1813	61.1926	-11.3207	1E-5
2.515823E+2	69.6853	69.6878	-2.5283	1E-5
2.215936E+2	80.5230	80.5028	20.2194	1E-4
1.984430E+2	91.1246	91.1070	17.5586	1E-4
1.827531E+2	99.8332	99.8186	14.6190	1E-4
1.667021E+2	110.4076	110.4070	0.5724	1E-4
1.556262E+2	118.9457	118.9611	-15.4039	1E-4
1.452140E+2	128.1436	128.1604	-16.8184	1E-4
1.359604E+2	137.4725	137.4822	-9.6936	1E-4
1.272071E+2	147.4944	147.5084	-14.0064	1E-4
1.197397E+2	157.1775	157.1862	-8.7082	1E-4
1.133242E+2	166.4966	166.4949	1.7290	1E-4
1.073264E+2	176.1961	176.1878	8.2714	1E-4
1.013275E+2	187.0432	187.0235	19.6564	1E-4
9.655091E+1	196.6388	196.6194	19.4074	1E-4
9.315441E+1	204.0672	204.0507	16.5392	1E-4
8.900186E+1	213.9320	213.9258	6.1947	1E-4
8.244107E+1	231.6109	231.6280	-17.1383	1E-4
7.860450E+1	243.3834	243.4108	-27.3573	1E-4
7.537621E+1	254.2837	254.3042	-20.4825	1E-4
7.096255E+1	270.9074	270.9072	0.2226	1E-4
6.637980E+1	290.7420	290.7088	33.2251	1E-4
6.433936E+1	300.5941	300.5707	23.4310	1E-4
6.239932E+1	310.6563	310.6868	-30.4501	1E-4
