Thermometre :	CX_LS_X104958
Environment :	VA
Date :	14/10/2015
Function :	 logT = Sum ( Ai / logR^i )
Coefficients :	
A0=	523.379059642050950E+0
A1=	-7.929824883802108E+3
A2=	44.636728928225435E+3
A3=	-83.386468682520834E+3
A4=	-252.793538585330360E+3
A5=	1.807621787837028E+6
A6=	-4.599309035845424E+6
A7=	6.260361987645611E+6
A8=	-4.538045124579065E+6
A9=	1.383053472151773E+6
Rmes(Ohm)	Tmes(K)	Tfit(K)	dT(mK)	Courant(A)
1.809053E+3	9.9310	9.9342	-3.2201	1E-5
1.650700E+3	10.9372	10.9340	3.1691	1E-5
1.522843E+3	11.9294	11.9258	3.5855	1E-5
1.415892E+3	12.9214	12.9194	2.0275	1E-5
1.324798E+3	13.9140	13.9138	0.1828	1E-5
1.246108E+3	14.9063	14.9079	-1.6489	1E-5
1.171130E+3	15.9936	15.9968	-3.1964	1E-5
1.110260E+3	16.9999	17.0025	-2.5853	1E-5
1.056267E+3	17.9987	18.0025	-3.8063	1E-5
1.007813E+3	18.9968	19.0005	-3.6743	1E-5
9.639880E+2	19.9950	19.9975	-2.4825	1E-5
9.240607E+2	20.9933	20.9950	-1.7117	1E-5
8.875736E+2	21.9906	21.9910	-0.3786	1E-5
8.540193E+2	22.9879	22.9871	0.8016	1E-5
8.230657E+2	23.9861	23.9824	3.6829	1E-5
7.942150E+2	24.9882	24.9838	4.4162	1E-5
7.675131E+2	25.9870	25.9809	6.0825	1E-5
7.426345E+2	26.9829	26.9773	5.6128	1E-5
7.193828E+2	27.9791	27.9732	5.9056	1E-5
5.233425E+2	39.9756	39.9808	-5.1565	1E-5
5.215239E+2	40.1278	40.1348	-7.0243	1E-5
4.108558E+2	52.0522	52.0627	-10.4718	1E-5
3.516258E+2	61.4813	61.4900	-8.6804	1E-5
3.056987E+2	71.2683	71.2634	4.9142	1E-5
2.711358E+2	80.7637	80.7458	17.9459	1E-4
2.468976E+2	88.9427	88.9300	12.7261	1E-4
2.224100E+2	98.9497	98.9415	8.1748	1E-4
2.029248E+2	108.5501	108.5576	-7.5418	1E-4
1.856779E+2	118.6580	118.6678	-9.7692	1E-4
1.719673E+2	128.0646	128.0723	-7.7350	1E-4
1.582647E+2	138.9942	139.0061	-11.8988	1E-4
1.468200E+2	149.6038	149.6141	-10.2940	1E-4
1.389507E+2	157.8623	157.8694	-7.1084	1E-4
1.290598E+2	169.6134	169.6091	4.3380	1E-4
1.257598E+2	173.9341	173.9217	12.4481	1E-4
1.168796E+2	186.7180	186.7036	14.3972	1E-4
1.109443E+2	196.3769	196.3688	8.0583	1E-4
1.071829E+2	203.0492	203.0456	3.6121	1E-4
1.021623E+2	212.7369	212.7275	9.3582	1E-4
9.842121E+1	220.6040	220.5930	10.9803	1E-4
9.271848E+1	233.8203	233.8326	-12.3393	1E-4
8.904357E+1	243.2700	243.2917	-21.7046	1E-4
8.442061E+1	256.3852	256.4101	-24.9436	1E-4
7.983658E+1	270.9954	271.0030	-7.5707	1E-4
7.711266E+1	280.5742	280.5594	14.7515	1E-4
7.437477E+1	290.9673	290.9473	20.0109	1E-4
7.191926E+1	301.0675	301.0396	27.8744	1E-4
6.968295E+1	310.9547	310.9848	-30.1286	1E-4
