Thermometre :	CX_LS_X107584
Environment :	VA
Date :	25/02/2016
Function :	 logT = Sum ( Ai / logR^i )
Coefficients :	
A0=	1.385684365186776E+3
A1=	-22.753084215695359E+3
A2=	158.244091657471550E+3
A3=	-598.223947146702560E+3
A4=	1.286124846675659E+6
A5=	-1.377763208242024E+6
A6=	6.773548506448889E+3
A7=	1.765328492409430E+6
A8=	-1.867439405819016E+6
A9=	655.132341876201800E+3
Rmes(Ohm)	Tmes(K)	Tfit(K)	dT(mK)	Courant(A)
9.584829E+2	9.9281	9.9316	-3.4648	1E-5
8.873709E+2	10.9344	10.9311	3.3074	1E-5
8.289043E+2	11.9291	11.9245	4.5891	1E-5
7.791612E+2	12.9239	12.9226	1.2765	1E-5
7.366336E+2	13.9116	13.9123	-0.6979	1E-5
6.993801E+2	14.9021	14.9031	-1.0185	1E-5
6.632072E+2	15.9933	15.9966	-3.2608	1E-5
6.336809E+2	16.9988	17.0015	-2.7115	1E-5
6.072804E+2	17.9958	17.9993	-3.4557	1E-5
5.834592E+2	18.9884	18.9913	-2.9267	1E-5
5.616127E+2	19.9853	19.9879	-2.5929	1E-5
5.415581E+2	20.9846	20.9849	-0.3075	1E-5
5.229233E+2	21.9901	21.9902	-0.1298	1E-5
5.058313E+2	22.9869	22.9867	0.2256	1E-5
4.899652E+2	23.9833	23.9822	1.1425	1E-5
4.750904E+2	24.9871	24.9834	3.6886	1E-5
4.612497E+2	25.9841	25.9799	4.1711	1E-5
4.482748E+2	26.9814	26.9763	5.1481	1E-5
4.360724E+2	27.9777	27.9731	4.6023	1E-5
4.245222E+2	28.9775	28.9748	2.7216	1E-5
4.147003E+2	29.8772	29.8747	2.5206	1E-5
3.637747E+2	35.3909	35.3921	-1.1766	1E-5
3.303798E+2	40.0016	40.0089	-7.3093	1E-5
2.695277E+2	51.5554	51.5706	-15.1792	1E-5
2.356630E+2	60.7364	60.7429	-6.5213	1E-5
2.085027E+2	70.3599	70.3566	3.3105	1E-5
1.875565E+2	79.7575	79.7480	9.4899	1E-4
1.723343E+2	88.0630	88.0488	14.2320	1E-4
1.580010E+2	97.3684	97.3569	11.5276	1E-4
1.456653E+2	106.8538	106.8501	3.7082	1E-4
1.347817E+2	116.6645	116.6705	-6.0457	1E-4
1.251864E+2	126.7282	126.7359	-7.7348	1E-4
1.172142E+2	136.3271	136.3385	-11.3677	1E-4
1.095786E+2	146.8116	146.8301	-18.5231	1E-4
1.044227E+2	154.7601	154.7745	-14.4415	1E-4
9.743868E+1	166.8653	166.8732	-7.8682	1E-4
9.570792E+1	170.1486	170.1457	2.9483	1E-4
8.997144E+1	181.9211	181.9054	15.7460	1E-4
8.556986E+1	192.0440	192.0242	19.7683	1E-4
8.302147E+1	198.4173	198.3910	26.2892	1E-4
7.944851E+1	208.0579	208.0376	20.3406	1E-4
7.693265E+1	215.4028	215.3974	5.3859	1E-4
7.322279E+1	227.2210	227.2331	-12.0543	1E-4
7.055586E+1	236.5394	236.5664	-27.0318	1E-4
6.724855E+1	249.2177	249.2531	-35.3509	1E-4
6.217342E+1	271.5838	271.6016	-17.7768	1E-4
6.090878E+1	277.8219	277.8168	5.0954	1E-4
5.872666E+1	289.2993	289.2649	34.3727	1E-4
5.844515E+1	290.8435	290.8149	28.6167	1E-4
5.508479E+1	310.8181	310.8434	-25.2926	1E-4
