Thermometre :	CX_LS_X107578
Environment :	VA
Date :	25/02/2016
Function :	 logT = Sum ( Ai / logR^i )
Coefficients :	
A0=	1.208670597997413E+3
A1=	-19.142980033148156E+3
A2=	125.333000217695250E+3
A3=	-422.368673301680830E+3
A4=	679.915999465566010E+3
A5=	18.519302002788037E+3
A6=	-2.139360957344783E+6
A7=	3.885485981431435E+6
A8=	-3.087711450013850E+6
A9=	966.617976602326260E+3
Rmes(Ohm)	Tmes(K)	Tfit(K)	dT(mK)	Courant(A)
9.826975E+2	9.9281	9.9315	-3.4323	1E-5
9.095700E+2	10.9344	10.9311	3.3196	1E-5
8.495294E+2	11.9276	11.9236	4.0484	1E-5
7.983597E+2	12.9241	12.9229	1.2222	1E-5
7.547789E+2	13.9116	13.9103	1.2852	1E-5
7.164127E+2	14.9021	14.9042	-2.1164	1E-5
6.793328E+2	15.9931	15.9964	-3.3470	1E-5
6.490445E+2	16.9987	17.0012	-2.5179	1E-5
6.219434E+2	17.9961	17.9998	-3.6792	1E-5
5.975202E+2	18.9883	18.9917	-3.3962	1E-5
5.751162E+2	19.9852	19.9886	-3.3565	1E-5
5.545800E+2	20.9843	20.9846	-0.2569	1E-5
5.354770E+2	21.9899	21.9901	-0.1822	1E-5
5.179645E+2	22.9867	22.9864	0.3239	1E-5
5.017137E+2	23.9828	23.9815	1.3167	1E-5
4.864672E+2	24.9870	24.9832	3.7856	1E-5
4.722929E+2	25.9838	25.9795	4.3326	1E-5
4.590022E+2	26.9809	26.9759	5.0476	1E-5
4.465087E+2	27.9771	27.9724	4.7245	1E-5
4.346765E+2	28.9771	28.9744	2.7368	1E-5
4.246181E+2	29.8787	29.8743	4.3804	1E-5
3.724953E+2	35.3882	35.3897	-1.5401	1E-5
3.383024E+2	39.9994	40.0075	-8.0884	1E-5
2.760145E+2	51.5534	51.5698	-16.4270	1E-5
2.413606E+2	60.7332	60.7401	-6.8585	1E-5
2.135605E+2	70.3563	70.3532	3.1423	1E-5
1.921354E+2	79.7467	79.7365	10.2454	1E-4
1.765515E+2	88.0535	88.0365	17.0372	1E-4
1.618713E+2	97.3612	97.3481	13.0603	1E-4
1.492403E+2	106.8454	106.8433	2.1114	1E-4
1.380987E+2	116.6565	116.6640	-7.5130	1E-4
1.282757E+2	126.7208	126.7304	-9.6090	1E-4
1.201186E+2	136.3170	136.3291	-12.0652	1E-4
1.123006E+2	146.8048	146.8240	-19.1724	1E-4
1.070242E+2	154.7528	154.7672	-14.4235	1E-4
9.987575E+1	166.8592	166.8665	-7.2607	1E-4
9.810413E+1	170.1435	170.1394	4.0899	1E-4
9.223497E+1	181.9133	181.8953	18.0024	1E-4
8.772836E+1	192.0387	192.0184	20.3069	1E-4
8.511996E+1	198.4137	198.3861	27.5645	1E-4
8.146046E+1	208.0607	208.0410	19.6923	1E-4
7.888802E+1	215.3998	215.3949	4.8966	1E-4
7.509070E+1	227.2207	227.2334	-12.6944	1E-4
7.235902E+1	236.5463	236.5759	-29.6306	1E-4
6.897587E+1	249.2217	249.2585	-36.8196	1E-4
6.378379E+1	271.5845	271.6013	-16.8445	1E-4
6.249036E+1	277.8216	277.8130	8.5535	1E-4
6.025226E+1	289.3212	289.2880	33.2146	1E-4
5.996579E+1	290.8582	290.8295	28.6841	1E-4
5.652615E+1	310.8406	310.8665	-25.9078	1E-4
