Thermometre :	CX_LS_X105608
Environment :	VA
Date :	25/02/2016
Function :	 logT = Sum ( Ai / logR^i )
Coefficients :	
A0=	166.536467282836750E+0
A1=	-321.494527977134450E+0
A2=	-27.402887066531919E+3
A3=	314.361608641488940E+3
A4=	-1.664184544738214E+6
A5=	5.145206224886162E+6
A6=	-9.857577861020284E+6
A7=	11.580520021840649E+6
A8=	-7.673511771520061E+6
A9=	2.202833420643521E+6
Rmes(Ohm)	Tmes(K)	Tfit(K)	dT(mK)	Courant(A)
1.850622E+3	9.9283	9.9312	-2.9201	1E-5
1.685061E+3	10.9346	10.9318	2.8048	1E-5
1.549956E+3	11.9424	11.9385	3.9414	1E-5
1.440045E+3	12.9223	12.9216	0.6893	1E-5
1.345926E+3	13.9116	13.9116	-0.0097	1E-5
1.264608E+3	14.9022	14.9029	-0.6599	1E-5
1.186637E+3	15.9952	15.9977	-2.5451	1E-5
1.123910E+3	16.9993	17.0020	-2.7162	1E-5
1.068498E+3	17.9939	17.9979	-3.9776	1E-5
1.018843E+3	18.9893	18.9914	-2.0763	1E-5
9.737764E+2	19.9863	19.9887	-2.3667	1E-5
9.327484E+2	20.9864	20.9873	-0.8588	1E-5
8.950453E+2	21.9915	21.9917	-0.1765	1E-5
8.606780E+2	22.9891	22.9891	-0.0075	1E-5
8.290103E+2	23.9873	23.9859	1.3711	1E-5
7.996345E+2	24.9885	24.9852	3.3319	1E-5
7.723964E+2	25.9868	25.9831	3.7266	1E-5
7.470330E+2	26.9856	26.9808	4.8401	1E-5
7.233394E+2	27.9831	27.9786	4.4733	1E-5
7.011047E+2	28.9811	28.9787	2.3753	1E-5
6.826352E+2	29.8651	29.8607	4.3966	1E-5
5.858800E+2	35.4131	35.4163	-3.1563	1E-5
5.244708E+2	40.0200	40.0267	-6.6503	1E-5
4.155136E+2	51.5721	51.5867	-14.5583	1E-5
3.566237E+2	60.7634	60.7710	-7.5737	1E-5
3.104479E+2	70.3902	70.3877	2.4645	1E-5
2.753162E+2	79.8480	79.8317	16.3052	1E-4
2.503156E+2	88.1423	88.1305	11.8349	1E-4
2.271062E+2	97.4282	97.4206	7.5863	1E-4
2.073275E+2	106.9250	106.9162	8.7945	1E-4
1.900743E+2	116.7313	116.7388	-7.5399	1E-4
1.750243E+2	126.7899	126.8059	-15.9723	1E-4
1.626172E+2	136.4111	136.4280	-16.9470	1E-4
1.509043E+2	146.8681	146.8816	-13.4838	1E-4
1.430211E+2	154.8211	154.8294	-8.3233	1E-4
1.324357E+2	166.9176	166.9178	-0.1782	1E-4
1.298277E+2	170.1911	170.1863	4.8015	1E-4
1.212014E+2	181.9868	181.9664	20.4111	1E-4
1.146479E+2	192.0885	192.0720	16.5362	1E-4
1.108712E+2	198.4474	198.4308	16.6119	1E-4
1.056214E+2	208.0349	208.0214	13.4731	1E-4
1.018956E+2	215.4275	215.4287	-1.1572	1E-4
9.647469E+1	227.2241	227.2371	-13.0455	1E-4
9.261507E+1	236.4816	236.4997	-18.0687	1E-4
8.780564E+1	249.1833	249.2046	-21.3110	1E-4
8.046902E+1	271.5778	271.6021	-24.2786	1E-4
7.865247E+1	277.8251	277.8237	1.4127	1E-4
7.557823E+1	289.1169	289.0891	27.7689	1E-4
7.516342E+1	290.7212	290.6872	34.0449	1E-4
7.039419E+1	310.6318	310.6553	-23.4575	1E-4
