Thermometre :	CX_LS_X107585
Environment :	VA
Date :	25/02/2016
Function :	 logT = Sum ( Ai / logR^i )
Coefficients :	
A0=	1.184905783172244E+3
A1=	-18.222168589496836E+3
A2=	113.653507287322120E+3
A3=	-346.239080052503380E+3
A4=	382.827772152697550E+3
A5=	756.285238019901560E+3
A6=	-3.320644093729722E+6
A7=	5.070715621333354E+6
A8=	-3.767336034028879E+6
A9=	1.136899188728185E+6
Rmes(Ohm)	Tmes(K)	Tfit(K)	dT(mK)	Courant(A)
9.398181E+2	9.9281	9.9315	-3.4314	1E-5
8.708146E+2	10.9344	10.9312	3.1752	1E-5
8.140404E+2	11.9295	11.9248	4.6527	1E-5
7.657416E+2	12.9239	12.9224	1.4794	1E-5
7.243993E+2	13.9116	13.9122	-0.5510	1E-5
6.881378E+2	14.9021	14.9038	-1.7420	1E-5
6.529746E+2	15.9934	15.9962	-2.8393	1E-5
6.242188E+2	16.9988	17.0016	-2.7858	1E-5
5.985123E+2	17.9958	17.9991	-3.3057	1E-5
5.753149E+2	18.9884	18.9906	-2.2139	1E-5
5.539932E+2	19.9853	19.9885	-3.1697	1E-5
5.344347E+2	20.9846	20.9857	-1.1312	1E-5
5.162714E+2	21.9901	21.9903	-0.2307	1E-5
4.995938E+2	22.9870	22.9868	0.2446	1E-5
4.841080E+2	23.9834	23.9822	1.2438	1E-5
4.695858E+2	24.9872	24.9833	3.9419	1E-5
4.560654E+2	25.9842	25.9799	4.3249	1E-5
4.433877E+2	26.9815	26.9762	5.2696	1E-5
4.314620E+2	27.9778	27.9730	4.7612	1E-5
4.201725E+2	28.9776	28.9745	3.1174	1E-5
4.105650E+2	29.8770	29.8746	2.3959	1E-5
3.607184E+2	35.3913	35.3924	-1.0735	1E-5
3.279904E+2	40.0019	40.0093	-7.4147	1E-5
2.682510E+2	51.5557	51.5717	-15.9523	1E-5
2.349407E+2	60.7370	60.7446	-7.5510	1E-5
2.081899E+2	70.3605	70.3575	3.0380	1E-5
1.875320E+2	79.7594	79.7487	10.6664	1E-4
1.725061E+2	88.0646	88.0481	16.5197	1E-4
1.583431E+2	97.3696	97.3558	13.8041	1E-4
1.461395E+2	106.8552	106.8522	2.9930	1E-4
1.353661E+2	116.6659	116.6748	-8.8861	1E-4
1.258639E+2	126.7294	126.7399	-10.5275	1E-4
1.179651E+2	136.3288	136.3412	-12.4237	1E-4
1.103957E+2	146.8128	146.8314	-18.6377	1E-4
1.052819E+2	154.7612	154.7752	-13.9910	1E-4
9.835170E+1	166.8663	166.8731	-6.8026	1E-4
9.663388E+1	170.1495	170.1451	4.4159	1E-4
9.093795E+1	181.9225	181.9044	18.1355	1E-4
8.656505E+1	192.0449	192.0243	20.5709	1E-4
8.403290E+1	198.4179	198.3908	27.1398	1E-4
8.048142E+1	208.0575	208.0374	20.0722	1E-4
7.797962E+1	215.4033	215.3982	5.0571	1E-4
7.428943E+1	227.2211	227.2349	-13.8142	1E-4
7.163622E+1	236.5382	236.5672	-29.0123	1E-4
6.834423E+1	249.2170	249.2546	-37.6117	1E-4
6.329108E+1	271.5836	271.6020	-18.3555	1E-4
6.203212E+1	277.8220	277.8143	7.7125	1E-4
5.985910E+1	289.2956	289.2597	35.9111	1E-4
5.957850E+1	290.8409	290.8107	30.2278	1E-4
5.623076E+1	310.8142	310.8416	-27.4317	1E-4
