Thermometre :	CX_LS_X107573
Environment :	VA
Date :	25/02/2016
Function :	 logT = Sum ( Ai / logR^i )
Coefficients :	
A0=	1.227365059311378E+3
A1=	-19.477208931409703E+3
A2=	127.988846315901610E+3
A3=	-434.722969279270270E+3
A4=	717.131134595316720E+3
A5=	-57.060285510345529E+3
A6=	-2.035487123413279E+6
A7=	3.792036791749256E+6
A8=	-3.037681130401835E+6
A9=	954.469834930634360E+3
Rmes(Ohm)	Tmes(K)	Tfit(K)	dT(mK)	Courant(A)
9.794872E+2	9.9280	9.9314	-3.4486	1E-5
9.067142E+2	10.9344	10.9308	3.5826	1E-5
8.469852E+2	11.9266	11.9227	3.9058	1E-5
7.959895E+2	12.9242	12.9232	0.9717	1E-5
7.525896E+2	13.9116	13.9112	0.4160	1E-5
7.144441E+2	14.9020	14.9039	-1.8952	1E-5
6.775582E+2	15.9930	15.9952	-2.1636	1E-5
6.473649E+2	16.9987	17.0011	-2.3992	1E-5
6.203776E+2	17.9962	17.9997	-3.5467	1E-5
5.960652E+2	18.9882	18.9913	-3.1271	1E-5
5.737681E+2	19.9851	19.9875	-2.3952	1E-5
5.532633E+2	20.9842	20.9861	-1.8511	1E-5
5.342630E+2	21.9898	21.9902	-0.4498	1E-5
5.168223E+2	22.9865	22.9864	0.1269	1E-5
5.006382E+2	23.9825	23.9812	1.2807	1E-5
4.854418E+2	24.9869	24.9834	3.4510	1E-5
4.713230E+2	25.9835	25.9795	3.9890	1E-5
4.580852E+2	26.9806	26.9756	5.0435	1E-5
4.456364E+2	27.9767	27.9721	4.6332	1E-5
4.338435E+2	28.9768	28.9742	2.5595	1E-5
4.238207E+2	29.8796	29.8741	5.4835	1E-5
3.718817E+2	35.3864	35.3879	-1.4698	1E-5
3.377853E+2	39.9979	40.0061	-8.1569	1E-5
2.756596E+2	51.5521	51.5678	-15.7332	1E-5
2.410800E+2	60.7310	60.7379	-6.8836	1E-5
2.133306E+2	70.3539	70.3509	3.0433	1E-5
1.919463E+2	79.7395	79.7303	9.2081	1E-4
1.763804E+2	88.0472	88.0309	16.2716	1E-4
1.617143E+2	97.3565	97.3433	13.1881	1E-4
1.490951E+2	106.8398	106.8374	2.4421	1E-4
1.379598E+2	116.6514	116.6584	-6.9672	1E-4
1.281414E+2	126.7159	126.7238	-7.8689	1E-4
1.199858E+2	136.3103	136.3221	-11.7621	1E-4
1.121652E+2	146.8005	146.8199	-19.4463	1E-4
1.068878E+2	154.7480	154.7630	-14.9684	1E-4
9.973587E+1	166.8550	166.8633	-8.2573	1E-4
9.796331E+1	170.1401	170.1362	3.8890	1E-4
9.209094E+1	181.9081	181.8909	17.2233	1E-4
8.758006E+1	192.0352	192.0154	19.7685	1E-4
8.496918E+1	198.4113	198.3835	27.7805	1E-4
8.130447E+1	208.0625	208.0428	19.6697	1E-4
7.873097E+1	215.3979	215.3920	5.9019	1E-4
7.492857E+1	227.2204	227.2325	-12.0763	1E-4
7.219195E+1	236.5509	236.5801	-29.2447	1E-4
6.880459E+1	249.2244	249.2610	-36.5623	1E-4
6.360429E+1	271.5849	271.6020	-17.0654	1E-4
6.230849E+1	277.8213	277.8131	8.2130	1E-4
6.006297E+1	289.3350	289.3028	32.1756	1E-4
5.977688E+1	290.8679	290.8391	28.7970	1E-4
5.632897E+1	310.8553	310.8806	-25.2907	1E-4
