Thermometre :	CX_LS_X105675
Environment :	VA
Date :	25/02/2016
Function :	 logT = Sum ( Ai / logR^i )
Coefficients :	
A0=	322.605728976907240E+0
A1=	-3.861196032304837E+3
A2=	7.580466130628955E+3
A3=	116.209302515071000E+3
A4=	-954.126471872607360E+3
A5=	3.473929706335327E+6
A6=	-7.271718286457880E+6
A7=	9.043175722161600E+6
A8=	-6.240432214028233E+6
A9=	1.847883507872079E+6
Rmes(Ohm)	Tmes(K)	Tfit(K)	dT(mK)	Courant(A)
1.983145E+3	9.9283	9.9314	-3.0634	1E-5
1.803880E+3	10.9346	10.9317	2.9335	1E-5
1.657907E+3	11.9417	11.9374	4.3484	1E-5
1.539039E+3	12.9223	12.9217	0.5735	1E-5
1.437451E+3	13.9116	13.9121	-0.5122	1E-5
1.349821E+3	14.9022	14.9030	-0.7850	1E-5
1.265878E+3	15.9951	15.9972	-2.0635	1E-5
1.198300E+3	16.9993	17.0022	-2.8644	1E-5
1.138720E+3	17.9940	17.9974	-3.3800	1E-5
1.085270E+3	18.9892	18.9919	-2.6942	1E-5
1.036842E+3	19.9862	19.9890	-2.8267	1E-5
9.928005E+2	20.9863	20.9868	-0.5092	1E-5
9.522939E+2	21.9914	21.9917	-0.2696	1E-5
9.154040E+2	22.9890	22.9891	-0.0676	1E-5
8.814281E+2	23.9871	23.9857	1.3556	1E-5
8.499177E+2	24.9884	24.9850	3.4218	1E-5
8.207094E+2	25.9867	25.9829	3.7963	1E-5
7.935247E+2	26.9854	26.9804	4.9648	1E-5
7.681337E+2	27.9828	27.9783	4.5136	1E-5
7.443119E+2	28.9809	28.9784	2.4840	1E-5
7.245024E+2	29.8658	29.8617	4.1462	1E-5
6.210005E+2	35.4118	35.4146	-2.7630	1E-5
5.553418E+2	40.0190	40.0253	-6.3197	1E-5
4.390026E+2	51.5712	51.5860	-14.8139	1E-5
3.762183E+2	60.7619	60.7701	-8.2290	1E-5
3.270396E+2	70.3884	70.3867	1.6945	1E-5
2.896705E+2	79.8430	79.8271	15.8855	1E-4
2.630902E+2	88.1379	88.1255	12.4065	1E-4
2.384318E+2	97.4248	97.4161	8.7056	1E-4
2.174369E+2	106.9210	106.9117	9.3089	1E-4
1.991381E+2	116.7276	116.7341	-6.5374	1E-4
1.831880E+2	126.7865	126.8014	-14.8675	1E-4
1.700485E+2	136.4064	136.4236	-17.2081	1E-4
1.576493E+2	146.8649	146.8799	-15.0395	1E-4
1.493112E+2	154.8177	154.8276	-9.9384	1E-4
1.381195E+2	166.9147	166.9171	-2.3560	1E-4
1.353631E+2	170.1888	170.1859	2.8874	1E-4
1.262518E+2	181.9832	181.9632	20.0022	1E-4
1.193312E+2	192.0860	192.0688	17.2285	1E-4
1.153450E+2	198.4457	198.4264	19.2519	1E-4
1.098039E+2	208.0362	208.0188	17.3915	1E-4
1.058758E+2	215.4261	215.4218	4.2675	1E-4
1.001577E+2	227.2239	227.2352	-11.3301	1E-4
9.608650E+1	236.4848	236.5076	-22.7752	1E-4
9.101916E+1	249.1852	249.2207	-35.4896	1E-4
8.330887E+1	271.5781	271.5954	-17.2753	1E-4
8.140039E+1	277.8249	277.8118	13.1043	1E-4
7.816104E+1	289.1270	289.1032	23.8472	1E-4
7.772527E+1	290.7280	290.7001	27.9200	1E-4
7.270932E+1	310.6422	310.6647	-22.4752	1E-4
