Thermometre :	CX_LS_X106641
Environment :	VA
Date :	14/10/2015
Function :	 logT = Sum ( Ai / logR^i )
Coefficients :	
A0=	709.965123565828780E+0
A1=	-11.394249376576678E+3
A2=	73.697390369568005E+3
A3=	-229.185247711399160E+3
A4=	232.393178214390410E+3
A5=	694.010571122592200E+3
A6=	-2.839268289665662E+6
A7=	4.423042584916124E+6
A8=	-3.396854494075901E+6
A9=	1.064128923801660E+6
Rmes(Ohm)	Tmes(K)	Tfit(K)	dT(mK)	Courant(A)
1.538523E+3	9.9308	9.9340	-3.1574	1E-5
1.408743E+3	10.9373	10.9345	2.7931	1E-5
1.303738E+3	11.9294	11.9254	4.0179	1E-5
1.215497E+3	12.9213	12.9192	2.1208	1E-5
1.140083E+3	13.9140	13.9142	-0.2262	1E-5
1.074804E+3	14.9063	14.9082	-1.8955	1E-5
1.012469E+3	15.9946	15.9962	-1.5661	1E-5
9.615968E+2	17.0002	17.0038	-3.5998	1E-5
9.164933E+2	17.9992	18.0031	-3.8659	1E-5
8.759200E+2	18.9969	19.0005	-3.5701	1E-5
8.391197E+2	19.9953	19.9977	-2.4069	1E-5
8.055326E+2	20.9936	20.9954	-1.7849	1E-5
7.747762E+2	21.9913	21.9918	-0.5092	1E-5
7.464424E+2	22.9890	22.9885	0.5003	1E-5
7.202543E+2	23.9881	23.9848	3.3237	1E-5
6.958665E+2	24.9889	24.9847	4.2019	1E-5
6.732229E+2	25.9882	25.9821	6.1137	1E-5
6.520900E+2	26.9847	26.9790	5.6623	1E-5
6.323100E+2	27.9816	27.9757	5.8805	1E-5
4.643336E+2	40.0022	40.0072	-4.9654	1E-5
4.627709E+2	40.1570	40.1611	-4.0700	1E-5
3.670593E+2	52.0916	52.1056	-14.0066	1E-5
3.156539E+2	61.5043	61.5117	-7.4260	1E-5
2.754640E+2	71.2956	71.2917	3.9376	1E-5
2.450688E+2	80.8031	80.7880	15.0622	1E-4
2.236825E+2	89.0001	88.9843	15.7581	1E-4
2.020524E+2	98.9965	98.9888	7.6685	1E-4
1.847724E+2	108.6004	108.6038	-3.4424	1E-4
1.694257E+2	118.7107	118.7166	-5.8818	1E-4
1.571474E+2	128.1474	128.1610	-13.6460	1E-4
1.449451E+2	139.0384	139.0511	-12.7431	1E-4
1.346867E+2	149.6418	149.6559	-14.0571	1E-4
1.276152E+2	157.9073	157.9129	-5.6423	1E-4
1.187185E+2	169.6521	169.6436	8.4971	1E-4
1.157384E+2	173.9744	173.9637	10.6610	1E-4
1.077266E+2	186.7463	186.7386	7.7447	1E-4
1.023644E+2	196.4066	196.3943	12.3272	1E-4
9.895862E+1	203.0781	203.0713	6.7874	1E-4
9.441309E+1	212.7540	212.7419	12.0610	1E-4
9.098882E+1	220.6882	220.6778	10.3798	1E-4
8.583756E+1	233.8300	233.8438	-13.8263	1E-4
8.250651E+1	243.2452	243.2657	-20.4632	1E-4
7.828803E+1	256.3735	256.4025	-29.0061	1E-4
7.410973E+1	270.9691	270.9782	-9.1051	1E-4
7.162693E+1	280.5236	280.5103	13.3033	1E-4
6.912435E+1	290.9163	290.8904	25.8557	1E-4
6.687056E+1	301.0387	301.0102	28.4736	1E-4
6.483489E+1	310.8612	310.8935	-32.2831	1E-4
