Thermometre :	CX_LS_X106788
Environment :	VA
Date :	14/10/2015
Function :	 logT = Sum ( Ai / logR^i )
Coefficients :	
A0=	-280.222824532895230E+0
A1=	14.039447513165962E+3
A2=	-196.965750680175700E+3
A3=	1.374227644569588E+6
A4=	-5.670122795384128E+6
A5=	14.805043853144299E+6
A6=	-24.857114602765087E+6
A7=	26.117947503220338E+6
A8=	-15.675264495712500E+6
A9=	4.110444635307667E+6
Rmes(Ohm)	Tmes(K)	Tfit(K)	dT(mK)	Courant(A)
8.465509E+2	9.9308	9.9346	-3.7789	1E-5
7.880921E+2	10.9373	10.9335	3.7762	1E-5
7.398532E+2	11.9295	11.9256	3.8961	1E-5
6.987872E+2	12.9213	12.9187	2.6141	1E-5
6.631791E+2	13.9140	13.9139	0.1169	1E-5
6.319721E+2	14.9063	14.9080	-1.6930	1E-5
6.017743E+2	15.9948	15.9976	-2.8483	1E-5
5.769114E+2	17.0003	17.0044	-4.1463	1E-5
5.546284E+2	17.9993	18.0036	-4.2896	1E-5
5.343892E+2	18.9969	19.0011	-4.2105	1E-5
5.158729E+2	19.9953	19.9982	-2.9145	1E-5
4.988324E+2	20.9937	20.9956	-1.9179	1E-5
4.830987E+2	21.9914	21.9920	-0.5892	1E-5
4.684942E+2	22.9892	22.9885	0.6637	1E-5
4.548976E+2	23.9884	23.9846	3.8220	1E-5
4.421477E+2	24.9890	24.9841	4.8573	1E-5
4.302271E+2	25.9884	25.9814	7.0457	1E-5
4.190265E+2	26.9850	26.9784	6.6162	1E-5
4.084797E+2	27.9820	27.9749	7.0913	1E-5
3.159399E+2	40.0066	40.0123	-5.6653	1E-5
3.150514E+2	40.1620	40.1662	-4.2122	1E-5
2.594370E+2	52.0981	52.1156	-17.4554	1E-5
2.284902E+2	61.5082	61.5174	-9.2007	1E-5
2.036424E+2	71.3001	71.2956	4.5194	1E-5
1.844123E+2	80.8096	80.7924	17.1942	1E-4
1.706263E+2	89.0097	88.9902	19.5427	1E-4
1.564454E+2	99.0044	98.9948	9.6223	1E-4
1.449208E+2	108.6089	108.6115	-2.6487	1E-4
1.345252E+2	118.7196	118.7256	-5.9539	1E-4
1.260829E+2	128.1613	128.1769	-15.6121	1E-4
1.175871E+2	139.0458	139.0613	-15.4916	1E-4
1.103448E+2	149.6481	149.6635	-15.4300	1E-4
1.052917E+2	157.9148	157.9273	-12.4512	1E-4
9.887310E+1	169.6586	169.6541	4.4534	1E-4
9.670468E+1	173.9812	173.9739	7.2789	1E-4
9.083354E+1	186.7510	186.7358	15.1609	1E-4
8.686100E+1	196.4116	196.3898	21.8250	1E-4
8.431952E+1	203.0830	203.0684	14.6161	1E-4
8.090580E+1	212.7568	212.7410	15.8283	1E-4
7.831315E+1	220.7024	220.6903	12.1375	1E-4
7.439135E+1	233.8316	233.8508	-19.1549	1E-4
7.183416E+1	243.2410	243.2708	-29.7635	1E-4
6.856923E+1	256.3715	256.4108	-39.2594	1E-4
6.530858E+1	270.9647	270.9771	-12.4341	1E-4
6.335747E+1	280.5151	280.4981	16.9929	1E-4
6.137933E+1	290.9077	290.8699	37.7512	1E-4
5.958706E+1	301.0339	300.9966	37.3300	1E-4
5.796284E+1	310.8461	310.8898	-43.6604	1E-4
