Thermometre :	CX_LS_X106792
Environment :	VA
Date :	14/10/2015
Function :	 logT = Sum ( Ai / logR^i )
Coefficients :	
A0=	-357.718717086460230E+0
A1=	16.163852696842914E+3
A2=	-220.016520671223490E+3
A3=	1.510542689789973E+6
A4=	-6.165094002692295E+6
A5=	15.963072167266440E+6
A6=	-26.614955807789486E+6
A7=	27.794591321042527E+6
A8=	-16.589571384704448E+6
A9=	4.327999053260649E+6
Rmes(Ohm)	Tmes(K)	Tfit(K)	dT(mK)	Courant(A)
8.074488E+2	9.9308	9.9342	-3.3865	1E-5
7.522900E+2	10.9373	10.9342	3.1057	1E-5
7.068226E+2	11.9295	11.9258	3.6547	1E-5
6.680869E+2	12.9213	12.9186	2.6870	1E-5
6.344771E+2	13.9140	13.9135	0.4805	1E-5
6.049871E+2	14.9063	14.9079	-1.6025	1E-5
5.764413E+2	15.9949	15.9976	-2.6729	1E-5
5.529344E+2	17.0003	17.0039	-3.6397	1E-5
5.318376E+2	17.9993	18.0035	-4.1842	1E-5
5.126722E+2	18.9969	19.0011	-4.1942	1E-5
4.951289E+2	19.9953	19.9983	-3.0305	1E-5
4.789756E+2	20.9937	20.9959	-2.2090	1E-5
4.640573E+2	21.9915	21.9923	-0.7545	1E-5
4.502029E+2	22.9893	22.9888	0.4745	1E-5
4.372954E+2	23.9887	23.9852	3.5028	1E-5
4.251955E+2	24.9891	24.9844	4.7260	1E-5
4.138726E+2	25.9886	25.9817	6.9128	1E-5
4.032314E+2	26.9852	26.9787	6.5419	1E-5
3.932057E+2	27.9823	27.9753	6.9637	1E-5
3.050818E+2	40.0101	40.0152	-5.0817	1E-5
3.042336E+2	40.1659	40.1693	-3.3886	1E-5
2.511301E+2	52.1033	52.1206	-17.2591	1E-5
2.215353E+2	61.5113	61.5207	-9.4066	1E-5
1.977312E+2	71.3039	71.3006	3.3288	1E-5
1.792854E+2	80.8147	80.7993	15.4250	1E-4
1.660495E+2	89.0172	88.9973	19.9259	1E-4
1.524240E+2	99.0104	98.9990	11.3617	1E-4
1.413350E+2	108.6157	108.6162	-0.5220	1E-4
1.313215E+2	118.7268	118.7318	-4.9716	1E-4
1.231788E+2	128.1725	128.1891	-16.5881	1E-4
1.149863E+2	139.0518	139.0692	-17.3904	1E-4
1.079948E+2	149.6533	149.6707	-17.4352	1E-4
1.031138E+2	157.9206	157.9341	-13.4738	1E-4
9.691161E+1	169.6638	169.6585	5.3075	1E-4
9.481481E+1	173.9866	173.9788	7.7815	1E-4
8.913755E+1	186.7548	186.7382	16.6297	1E-4
8.529369E+1	196.4157	196.3926	23.1153	1E-4
8.283406E+1	203.0867	203.0711	15.5953	1E-4
7.952955E+1	212.7590	212.7434	15.6359	1E-4
7.701655E+1	220.7137	220.7011	12.5829	1E-4
7.322058E+1	233.8329	233.8535	-20.5731	1E-4
7.074431E+1	243.2377	243.2689	-31.1571	1E-4
6.757989E+1	256.3700	256.4109	-40.9232	1E-4
6.442026E+1	270.9613	270.9736	-12.3364	1E-4
6.252973E+1	280.5083	280.4905	17.8362	1E-4
6.061230E+1	290.9008	290.8615	39.3419	1E-4
5.887452E+1	301.0300	300.9909	39.1224	1E-4
5.730098E+1	310.8334	310.8793	-45.8923	1E-4
