Thermometre :	CX_LS_X107577
Environment :	VA
Date :	25/02/2016
Function :	 logT = Sum ( Ai / logR^i )
Coefficients :	
A0=	1.277479470683599E+3
A1=	-20.901123618167363E+3
A2=	143.799584427947350E+3
A3=	-529.813386084550640E+3
A4=	1.066922474038768E+6
A5=	-883.732288046845930E+3
A6=	-770.921502658031530E+3
A7=	2.579158385489414E+6
A8=	-2.373954974731782E+6
A9=	796.315996991699330E+3
Rmes(Ohm)	Tmes(K)	Tfit(K)	dT(mK)	Courant(A)
1.030074E+3	9.9281	9.9316	-3.4774	1E-5
9.523461E+2	10.9344	10.9313	3.1470	1E-5
8.885451E+2	11.9297	11.9250	4.6641	1E-5
8.343888E+2	12.9239	12.9228	1.1242	1E-5
7.882164E+2	13.9116	13.9106	1.0482	1E-5
7.476173E+2	14.9021	14.9045	-2.4208	1E-5
7.084179E+2	15.9934	15.9967	-3.2829	1E-5
6.764133E+2	16.9988	17.0017	-2.9248	1E-5
6.478274E+2	17.9958	17.9994	-3.6500	1E-5
6.220606E+2	18.9884	18.9914	-2.9535	1E-5
5.984614E+2	19.9853	19.9872	-1.8945	1E-5
5.767672E+2	20.9846	20.9857	-1.0924	1E-5
5.566642E+2	21.9902	21.9905	-0.3165	1E-5
5.382277E+2	22.9870	22.9870	-0.0110	1E-5
5.211287E+2	23.9834	23.9823	1.1079	1E-5
5.051065E+2	24.9872	24.9834	3.7917	1E-5
4.902047E+2	25.9842	25.9799	4.2800	1E-5
4.762425E+2	26.9816	26.9762	5.3505	1E-5
4.631206E+2	27.9779	27.9729	4.9724	1E-5
4.507074E+2	28.9776	28.9743	3.2726	1E-5
4.401513E+2	29.8767	29.8744	2.2947	1E-5
3.854973E+2	35.3917	35.3922	-0.5324	1E-5
3.497248E+2	40.0023	40.0093	-6.9993	1E-5
2.846743E+2	51.5560	51.5722	-16.2374	1E-5
2.485506E+2	60.7375	60.7457	-8.1881	1E-5
2.196241E+2	70.3610	70.3587	2.2937	1E-5
1.973364E+2	79.7610	79.7515	9.5500	1E-4
1.811607E+2	88.0660	88.0498	16.2094	1E-4
1.659401E+2	97.3707	97.3558	14.9132	1E-4
1.528460E+2	106.8565	106.8506	5.9404	1E-4
1.413006E+2	116.6671	116.6743	-7.2407	1E-4
1.311318E+2	126.7305	126.7412	-10.7397	1E-4
1.226904E+2	136.3303	136.3439	-13.5995	1E-4
1.146125E+2	146.8138	146.8337	-19.8942	1E-4
1.091603E+2	154.7623	154.7781	-15.7727	1E-4
1.017805E+2	166.8673	166.8749	-7.6400	1E-4
9.995252E+1	170.1502	170.1469	3.3104	1E-4
9.389557E+1	181.9236	181.9060	17.5870	1E-4
8.925084E+1	192.0457	192.0240	21.6967	1E-4
8.656264E+1	198.4184	198.3903	28.0979	1E-4
8.279541E+1	208.0571	208.0346	22.4766	1E-4
8.014159E+1	215.4037	215.3983	5.3963	1E-4
7.623136E+1	227.2211	227.2344	-13.2932	1E-4
7.342180E+1	236.5372	236.5657	-28.5495	1E-4
6.993677E+1	249.2164	249.2552	-38.8367	1E-4
6.459150E+1	271.5835	271.6034	-19.8855	1E-4
6.326018E+1	277.8221	277.8166	5.4678	1E-4
6.096455E+1	289.2924	289.2547	37.6868	1E-4
6.066757E+1	290.8391	290.8078	31.2677	1E-4
5.713091E+1	310.8110	310.8385	-27.5273	1E-4
