Thermometre :	CX_LS_X105061
Environment :	VA
Date :	14/10/2015
Function :	 logT = Sum ( Ai / logR^i )
Coefficients :	
A0=	598.008162821647710E+0
A1=	-10.044613389027314E+3
A2=	68.943645841386009E+3
A3=	-237.213612365641140E+3
A4=	348.196874907048830E+3
A5=	289.426843437813400E+3
A6=	-2.104183874007921E+6
A7=	3.677256853783337E+6
A8=	-3.005164827244054E+6
A9=	984.972347035384740E+3
Rmes(Ohm)	Tmes(K)	Tfit(K)	dT(mK)	Courant(A)
2.026643E+3	9.9309	9.9340	-3.0973	1E-5
1.843609E+3	10.9372	10.9342	3.0152	1E-5
1.696375E+3	11.9294	11.9262	3.1759	1E-5
1.573690E+3	12.9214	12.9192	2.2206	1E-5
1.469406E+3	13.9140	13.9136	0.3938	1E-5
1.379565E+3	14.9063	14.9074	-1.0843	1E-5
1.294062E+3	15.9939	15.9971	-3.1643	1E-5
1.224847E+3	17.0000	17.0028	-2.7744	1E-5
1.163565E+3	17.9988	18.0028	-4.0054	1E-5
1.108680E+3	18.9968	19.0005	-3.6608	1E-5
1.059095E+3	19.9951	19.9976	-2.4926	1E-5
1.013992E+3	20.9934	20.9952	-1.7510	1E-5
9.728278E+2	21.9908	21.9913	-0.4855	1E-5
9.350207E+2	22.9882	22.9876	0.5563	1E-5
9.001885E+2	23.9866	23.9832	3.3948	1E-5
8.677872E+2	24.9884	24.9840	4.3789	1E-5
8.378117E+2	25.9873	25.9813	5.9770	1E-5
8.099175E+2	26.9834	26.9777	5.6675	1E-5
7.838699E+2	27.9798	27.9739	5.9247	1E-5
5.653768E+2	39.9826	39.9873	-4.7082	1E-5
5.633647E+2	40.1356	40.1411	-5.5321	1E-5
4.410829E+2	52.0627	52.0742	-11.5304	1E-5
3.760518E+2	61.4875	61.4959	-8.4079	1E-5
3.257658E+2	71.2757	71.2719	3.8198	1E-5
2.880366E+2	80.7743	80.7584	15.9138	1E-4
2.616475E+2	88.9579	88.9456	12.2891	1E-4
2.350657E+2	98.9621	98.9536	8.4730	1E-4
2.139579E+2	108.5637	108.5671	-3.3820	1E-4
1.953049E+2	118.6720	118.6783	-6.2870	1E-4
1.804873E+2	128.0865	128.0951	-8.6224	1E-4
1.657369E+2	139.0059	139.0188	-12.9269	1E-4
1.534256E+2	149.6141	149.6265	-12.4346	1E-4
1.449702E+2	157.8742	157.8832	-8.9775	1E-4
1.343596E+2	169.6239	169.6209	2.9972	1E-4
1.308203E+2	173.9448	173.9360	8.8001	1E-4
1.213135E+2	186.7256	186.7138	11.7562	1E-4
1.149704E+2	196.3848	196.3698	15.0110	1E-4
1.109500E+2	203.0570	203.0460	11.0213	1E-4
1.055842E+2	212.7414	212.7336	7.7771	1E-4
1.015822E+2	220.6268	220.6179	8.9308	1E-4
9.551087E+1	233.8228	233.8367	-13.8632	1E-4
9.159943E+1	243.2633	243.2850	-21.7139	1E-4
8.667518E+1	256.3821	256.4080	-25.8950	1E-4
8.179957E+1	270.9885	270.9963	-7.7881	1E-4
7.890511E+1	280.5608	280.5464	14.4203	1E-4
7.599561E+1	290.9538	290.9325	21.2641	1E-4
7.338510E+1	301.0598	301.0326	27.1873	1E-4
7.101496E+1	310.9299	310.9597	-29.7944	1E-4
