Thermometre :	CX_LS_X106580
Environment :	VA
Date :	14/10/2015
Function :	 logT = Sum ( Ai / logR^i )
Coefficients :	
A0=	760.726344584809910E+0
A1=	-12.398647218721624E+3
A2=	82.381281089990967E+3
A3=	-272.173793736687750E+3
A4=	366.321976364403960E+3
A5=	422.827703312394560E+3
A6=	-2.484747967971489E+6
A7=	4.137678404657426E+6
A8=	-3.271114878019609E+6
A9=	1.042015728507725E+6
Rmes(Ohm)	Tmes(K)	Tfit(K)	dT(mK)	Courant(A)
1.544559E+3	9.9309	9.9339	-3.0398	1E-5
1.414822E+3	10.9373	10.9349	2.4220	1E-5
1.309897E+3	11.9294	11.9253	4.1348	1E-5
1.221656E+3	12.9213	12.9189	2.4374	1E-5
1.146190E+3	13.9140	13.9140	-0.0140	1E-5
1.080846E+3	14.9063	14.9081	-1.7590	1E-5
1.018393E+3	15.9942	15.9968	-2.5750	1E-5
9.674736E+2	17.0001	17.0038	-3.7163	1E-5
9.223047E+2	17.9990	18.0027	-3.6758	1E-5
8.816379E+2	18.9968	19.0002	-3.4494	1E-5
8.447520E+2	19.9952	19.9974	-2.2367	1E-5
8.110797E+2	20.9935	20.9950	-1.5360	1E-5
7.802356E+2	21.9910	21.9915	-0.4717	1E-5
7.518205E+2	22.9885	22.9880	0.5242	1E-5
7.255554E+2	23.9872	23.9839	3.2815	1E-5
7.010717E+2	24.9886	24.9843	4.2913	1E-5
6.783491E+2	25.9877	25.9816	6.1457	1E-5
6.571423E+2	26.9839	26.9782	5.7179	1E-5
6.372866E+2	27.9805	27.9747	5.8139	1E-5
4.686040E+2	39.9906	39.9955	-4.8811	1E-5
4.670298E+2	40.1443	40.1496	-5.2690	1E-5
3.707236E+2	52.0744	52.0874	-12.9510	1E-5
3.188799E+2	61.4943	61.5020	-7.7188	1E-5
2.783757E+2	71.2838	71.2791	4.7487	1E-5
2.477342E+2	80.7859	80.7694	16.4970	1E-4
2.261624E+2	88.9750	88.9610	14.0163	1E-4
2.043163E+2	98.9760	98.9693	6.7217	1E-4
1.868664E+2	108.5786	108.5837	-5.1485	1E-4
1.713663E+2	118.6878	118.6944	-6.6477	1E-4
1.589795E+2	128.1116	128.1224	-10.7971	1E-4
1.466235E+2	139.0190	139.0313	-12.2954	1E-4
1.362511E+2	149.6254	149.6374	-12.0164	1E-4
1.291014E+2	157.8876	157.8932	-5.5740	1E-4
1.200991E+2	169.6354	169.6286	6.7767	1E-4
1.170864E+2	173.9568	173.9457	11.0979	1E-4
1.089755E+2	186.7340	186.7271	6.9388	1E-4
1.035487E+2	196.3938	196.3823	11.4965	1E-4
1.001009E+2	203.0655	203.0596	5.8622	1E-4
9.549629E+1	212.7465	212.7355	10.9909	1E-4
9.204179E+1	220.6518	220.6406	11.1702	1E-4
8.681133E+1	233.8258	233.8381	-12.3255	1E-4
8.343125E+1	243.2559	243.2766	-20.7202	1E-4
7.916013E+1	256.3786	256.4058	-27.2228	1E-4
7.492408E+1	270.9806	270.9893	-8.6855	1E-4
7.240525E+1	280.5455	280.5318	13.6823	1E-4
6.986796E+1	290.9384	290.9155	22.8834	1E-4
6.758579E+1	301.0512	301.0236	27.5793	1E-4
6.551636E+1	310.9021	310.9326	-30.5185	1E-4
