Thermometre :	CX_LS_X105673
Environment :	VA
Date :	25/02/2016
Function :	 logT = Sum ( Ai / logR^i )
Coefficients :	
A0=	340.408346639376080E+0
A1=	-4.105120984120967E+3
A2=	9.177494591019989E+3
A3=	108.182949134928680E+3
A4=	-917.876221473687100E+3
A5=	3.346863559365982E+6
A6=	-6.974117036065382E+6
A7=	8.615217762524040E+6
A8=	-5.899414810713349E+6
A9=	1.732508238213413E+6
Rmes(Ohm)	Tmes(K)	Tfit(K)	dT(mK)	Courant(A)
1.814940E+3	9.9283	9.9313	-3.0479	1E-5
1.653744E+3	10.9345	10.9316	2.9198	1E-5
1.522240E+3	11.9411	11.9369	4.2243	1E-5
1.414833E+3	12.9224	12.9221	0.3243	1E-5
1.323083E+3	13.9116	13.9113	0.3475	1E-5
1.243693E+3	14.9022	14.9026	-0.3511	1E-5
1.167462E+3	15.9950	15.9985	-3.5257	1E-5
1.106209E+3	16.9992	17.0021	-2.8752	1E-5
1.052074E+3	17.9941	17.9971	-3.0284	1E-5
1.003436E+3	18.9892	18.9920	-2.8213	1E-5
9.593709E+2	19.9862	19.9886	-2.3618	1E-5
9.192213E+2	20.9863	20.9868	-0.4941	1E-5
8.822823E+2	21.9914	21.9917	-0.2610	1E-5
8.486192E+2	22.9889	22.9890	-0.0827	1E-5
8.175911E+2	23.9869	23.9857	1.2393	1E-5
7.887958E+2	24.9883	24.9849	3.4111	1E-5
7.620909E+2	25.9866	25.9827	3.9225	1E-5
7.372160E+2	26.9852	26.9803	4.9144	1E-5
7.139728E+2	27.9826	27.9781	4.5397	1E-5
6.921530E+2	28.9807	28.9782	2.5327	1E-5
6.739778E+2	29.8663	29.8625	3.8349	1E-5
5.790199E+2	35.4109	35.4136	-2.7005	1E-5
5.186308E+2	40.0182	40.0244	-6.2193	1E-5
4.113566E+2	51.5705	51.5853	-14.7737	1E-5
3.533029E+2	60.7608	60.7690	-8.2125	1E-5
3.077340E+2	70.3872	70.3855	1.7173	1E-5
2.730512E+2	79.8393	79.8238	15.5027	1E-4
2.483381E+2	88.1346	88.1222	12.4058	1E-4
2.253798E+2	97.4224	97.4133	9.1059	1E-4
2.058075E+2	106.9181	106.9089	9.2001	1E-4
1.887273E+2	116.7248	116.7312	-6.4272	1E-4
1.738208E+2	126.7840	126.7988	-14.8424	1E-4
1.615290E+2	136.4030	136.4202	-17.2106	1E-4
1.499158E+2	146.8626	146.8772	-14.6404	1E-4
1.420991E+2	154.8152	154.8257	-10.4587	1E-4
1.315984E+2	166.9126	166.9155	-2.8618	1E-4
1.290111E+2	170.1870	170.1836	3.4390	1E-4
1.204513E+2	181.9805	181.9611	19.3657	1E-4
1.139438E+2	192.0842	192.0672	16.9873	1E-4
1.101932E+2	198.4445	198.4252	19.2750	1E-4
1.049760E+2	208.0371	208.0193	17.7931	1E-4
1.012767E+2	215.4251	215.4209	4.1953	1E-4
9.588711E+1	227.2238	227.2345	-10.6765	1E-4
9.204655E+1	236.4872	236.5088	-21.5535	1E-4
8.726459E+1	249.1866	249.2210	-34.3616	1E-4
7.998030E+1	271.5784	271.5992	-20.8357	1E-4
7.817550E+1	277.8248	277.8186	6.1628	1E-4
7.511377E+1	289.1345	289.1051	29.3654	1E-4
7.470199E+1	290.7331	290.7005	32.5596	1E-4
6.995371E+1	310.6493	310.6740	-24.6775	1E-4
