Thermometre :	CX_LS_X107593
Environment :	VA
Date :	25/02/2016
Function :	 logT = Sum ( Ai / logR^i )
Coefficients :	
A0=	969.084406933457100E+0
A1=	-13.093074069939001E+3
A2=	62.274865000336591E+3
A3=	-57.308126408790907E+3
A4=	-631.228758736150340E+3
A5=	3.072434406642003E+6
A6=	-6.775869055272022E+6
A7=	8.325017681764836E+6
A8=	-5.526210114127767E+6
A9=	1.552988023043085E+6
Rmes(Ohm)	Tmes(K)	Tfit(K)	dT(mK)	Courant(A)
8.546995E+2	9.9281	9.9315	-3.3883	1E-5
7.936442E+2	10.9344	10.9314	3.0414	1E-5
7.431901E+2	11.9320	11.9270	4.9992	1E-5
7.003507E+2	12.9236	12.9224	1.2124	1E-5
6.635326E+2	13.9116	13.9118	-0.1962	1E-5
6.311395E+2	14.9021	14.9045	-2.4161	1E-5
5.997084E+2	15.9937	15.9969	-3.2457	1E-5
5.739793E+2	16.9989	17.0017	-2.8182	1E-5
5.509502E+2	17.9954	17.9985	-3.0646	1E-5
5.300948E+2	18.9886	18.9915	-2.9110	1E-5
5.109809E+2	19.9855	19.9868	-1.3145	1E-5
4.933501E+2	20.9850	20.9859	-0.9018	1E-5
4.769913E+2	21.9904	21.9905	-0.0632	1E-5
4.619516E+2	22.9874	22.9871	0.2942	1E-5
4.479723E+2	23.9841	23.9828	1.2915	1E-5
4.348614E+2	24.9874	24.9834	4.0020	1E-5
4.226344E+2	25.9847	25.9803	4.4044	1E-5
4.111606E+2	26.9823	26.9769	5.4182	1E-5
4.003582E+2	27.9789	27.9740	4.9195	1E-5
3.901318E+2	28.9783	28.9750	3.3403	1E-5
3.814186E+2	29.8746	29.8751	-0.4863	1E-5
3.360880E+2	35.3956	35.3969	-1.2619	1E-5
3.062654E+2	40.0055	40.0124	-6.8930	1E-5
2.516075E+2	51.5590	51.5743	-15.3194	1E-5
2.210017E+2	60.7422	60.7486	-6.3841	1E-5
1.963562E+2	70.3663	70.3620	4.2746	1E-5
1.772575E+2	79.7766	79.7653	11.3300	1E-4
1.633554E+2	88.0798	88.0661	13.7327	1E-4
1.502340E+2	97.3810	97.3712	9.7745	1E-4
1.389068E+2	106.8690	106.8656	3.4077	1E-4
1.288902E+2	116.6788	116.6858	-6.9664	1E-4
1.200392E+2	126.7414	126.7505	-9.1369	1E-4
1.126671E+2	136.3451	136.3565	-11.3833	1E-4
1.055994E+2	146.8235	146.8415	-17.9743	1E-4
1.008156E+2	154.7730	154.7863	-13.3463	1E-4
9.432662E+1	166.8764	166.8828	-6.4314	1E-4
9.271690E+1	170.1576	170.1541	3.4557	1E-4
8.737224E+1	181.9352	181.9183	16.9403	1E-4
8.326868E+1	192.0535	192.0329	20.6445	1E-4
8.088990E+1	198.4236	198.3982	25.4491	1E-4
7.755477E+1	208.0530	208.0329	20.1020	1E-4
7.519770E+1	215.4080	215.4039	4.0554	1E-4
7.172519E+1	227.2217	227.2353	-13.6171	1E-4
6.922910E+1	236.5270	236.5541	-27.0809	1E-4
6.612413E+1	249.2103	249.2468	-36.5418	1E-4
6.135448E+1	271.5825	271.6010	-18.4565	1E-4
6.016529E+1	277.8226	277.8157	6.8823	1E-4
5.811880E+1	289.2609	289.2264	34.4534	1E-4
5.785216E+1	290.8176	290.7862	31.4375	1E-4
5.468974E+1	310.7786	310.8059	-27.2800	1E-4
