Thermometre :	CX_LS_X107583
Environment :	VA
Date :	25/02/2016
Function :	 logT = Sum ( Ai / logR^i )
Coefficients :	
A0=	1.056491909811493E+3
A1=	-16.141465352574849E+3
A2=	99.022402526109974E+3
A3=	-287.826144517267590E+3
A4=	237.657480121568540E+3
A5=	987.429747396851770E+3
A6=	-3.553751072140531E+6
A7=	5.211711182280571E+6
A8=	-3.812328068774376E+6
A9=	1.142340020112983E+6
Rmes(Ohm)	Tmes(K)	Tfit(K)	dT(mK)	Courant(A)
9.943821E+2	9.9281	9.9314	-3.2928	1E-5
9.199953E+2	10.9344	10.9312	3.2136	1E-5
8.589088E+2	11.9288	11.9245	4.2923	1E-5
8.069387E+2	12.9240	12.9233	0.6987	1E-5
7.626422E+2	13.9116	13.9113	0.3091	1E-5
7.237422E+2	14.9021	14.9035	-1.4434	1E-5
6.860774E+2	15.9933	15.9962	-2.9364	1E-5
6.553210E+2	16.9988	17.0015	-2.6871	1E-5
6.278434E+2	17.9959	17.9993	-3.3555	1E-5
6.030896E+2	18.9884	18.9902	-1.8182	1E-5
5.803339E+2	19.9852	19.9885	-3.3186	1E-5
5.594949E+2	20.9845	20.9854	-0.8600	1E-5
5.401414E+2	21.9901	21.9904	-0.2568	1E-5
5.223914E+2	22.9869	22.9868	0.1346	1E-5
5.059232E+2	23.9832	23.9820	1.1810	1E-5
4.904831E+2	24.9871	24.9834	3.6856	1E-5
4.761220E+2	25.9840	25.9800	4.0079	1E-5
4.626645E+2	26.9813	26.9763	5.0314	1E-5
4.500117E+2	27.9776	27.9731	4.5440	1E-5
4.380385E+2	28.9774	28.9746	2.7540	1E-5
4.278568E+2	29.8775	29.8747	2.8225	1E-5
3.751123E+2	35.3904	35.3915	-1.0527	1E-5
3.405491E+2	40.0011	40.0085	-7.4159	1E-5
2.776343E+2	51.5550	51.5700	-14.9734	1E-5
2.426569E+2	60.7358	60.7422	-6.3563	1E-5
2.146232E+2	70.3592	70.3559	3.3138	1E-5
1.930186E+2	79.7554	79.7463	9.0517	1E-4
1.773239E+2	88.0612	88.0471	14.1235	1E-4
1.625517E+2	97.3670	97.3553	11.6738	1E-4
1.498440E+2	106.8521	106.8482	3.9318	1E-4
1.386356E+2	116.6630	116.6687	-5.6859	1E-4
1.287565E+2	126.7267	126.7348	-8.0529	1E-4
1.205517E+2	136.3251	136.3368	-11.7090	1E-4
1.126943E+2	146.8103	146.8292	-18.9109	1E-4
1.073905E+2	154.7587	154.7730	-14.3444	1E-4
1.002069E+2	166.8641	166.8720	-7.8905	1E-4
9.842698E+1	170.1476	170.1445	3.0653	1E-4
9.252900E+1	181.9196	181.9033	16.3480	1E-4
8.800369E+1	192.0430	192.0230	19.9917	1E-4
8.538428E+1	198.4166	198.3899	26.7284	1E-4
8.171161E+1	208.0585	208.0384	20.1050	1E-4
7.912694E+1	215.4022	215.3969	5.3249	1E-4
7.531528E+1	227.2210	227.2331	-12.0691	1E-4
7.257522E+1	236.5407	236.5682	-27.4859	1E-4
6.917830E+1	249.2184	249.2549	-36.4691	1E-4
6.396689E+1	271.5839	271.6019	-17.9536	1E-4
6.266878E+1	277.8219	277.8151	6.8175	1E-4
6.042711E+1	289.3036	289.2701	33.4610	1E-4
6.013872E+1	290.8463	290.8169	29.3937	1E-4
5.668950E+1	310.8225	310.8482	-25.6844	1E-4
