Thermometre :	CX_LS_X104942
Environment :	VA
Date :	14/10/2015
Function :	 logT = Sum ( Ai / logR^i )
Coefficients :	
A0=	600.797000806818800E+0
A1=	-10.080457033264063E+3
A2=	69.115198007762578E+3
A3=	-237.546937892337880E+3
A4=	348.262574871004040E+3
A5=	289.607733553525880E+3
A6=	-2.101780300569987E+6
A7=	3.669322262663063E+6
A8=	-2.995896281672081E+6
A9=	981.070290631996000E+3
Rmes(Ohm)	Tmes(K)	Tfit(K)	dT(mK)	Courant(A)
2.005893E+3	9.9309	9.9341	-3.1944	1E-5
1.825211E+3	10.9373	10.9343	3.0425	1E-5
1.679885E+3	11.9294	11.9258	3.5963	1E-5
1.558641E+3	12.9214	12.9192	2.1771	1E-5
1.455584E+3	13.9140	13.9139	0.0691	1E-5
1.366813E+3	14.9063	14.9077	-1.3614	1E-5
1.282341E+3	15.9939	15.9969	-2.9836	1E-5
1.213901E+3	17.0000	17.0029	-2.8618	1E-5
1.153315E+3	17.9989	18.0029	-3.9618	1E-5
1.099047E+3	18.9968	19.0005	-3.6608	1E-5
1.050009E+3	19.9951	19.9976	-2.5186	1E-5
1.005402E+3	20.9934	20.9951	-1.7168	1E-5
9.646805E+2	21.9908	21.9913	-0.5236	1E-5
9.272799E+2	22.9883	22.9877	0.6475	1E-5
8.928147E+2	23.9868	23.9833	3.4966	1E-5
8.607567E+2	24.9885	24.9841	4.4459	1E-5
8.310980E+2	25.9874	25.9812	6.1814	1E-5
8.034852E+2	26.9835	26.9779	5.6085	1E-5
7.777057E+2	27.9800	27.9740	5.9837	1E-5
5.613427E+2	39.9843	39.9892	-4.9259	1E-5
5.593481E+2	40.1376	40.1432	-5.5776	1E-5
4.381855E+2	52.0654	52.0776	-12.1913	1E-5
3.737373E+2	61.4891	61.4976	-8.5006	1E-5
3.238775E+2	71.2774	71.2732	4.2212	1E-5
2.864549E+2	80.7768	80.7602	16.5678	1E-4
2.602759E+2	88.9617	88.9478	13.8599	1E-4
2.339026E+2	98.9651	98.9560	9.0532	1E-4
2.129527E+2	108.5669	108.5722	-5.2789	1E-4
1.944421E+2	118.6755	118.6838	-8.3380	1E-4
1.797346E+2	128.0919	128.1024	-10.4562	1E-4
1.651024E+2	139.0090	139.0204	-11.4387	1E-4
1.528820E+2	149.6166	149.6282	-11.5857	1E-4
1.444885E+2	157.8774	157.8848	-7.4338	1E-4
1.339547E+2	169.6264	169.6227	3.7307	1E-4
1.304404E+2	173.9476	173.9383	9.3046	1E-4
1.210016E+2	186.7275	186.7156	11.8803	1E-4
1.147027E+2	196.3869	196.3720	14.9208	1E-4
1.107100E+2	203.0588	203.0485	10.2768	1E-4
1.053813E+2	212.7426	212.7358	6.8026	1E-4
1.014040E+2	220.6323	220.6253	6.9737	1E-4
9.537685E+1	233.8235	233.8375	-13.9926	1E-4
9.149303E+1	243.2617	243.2824	-20.7444	1E-4
8.660147E+1	256.3814	256.4062	-24.8295	1E-4
8.175900E+1	270.9868	270.9937	-6.8966	1E-4
7.888448E+1	280.5573	280.5427	14.6295	1E-4
7.599442E+1	290.9502	290.9298	20.4295	1E-4
7.340093E+1	301.0579	301.0318	26.1265	1E-4
7.104759E+1	310.9239	310.9530	-29.0663	1E-4
