Thermometre :	CX_LS_X105627
Environment :	VA
Date :	25/02/2016
Function :	 logT = Sum ( Ai / logR^i )
Coefficients :	
A0=	360.300597357775470E+0
A1=	-3.783779959521542E+3
A2=	-89.652726026791186E+0
A3=	188.789493553133740E+3
A4=	-1.290685632194284E+6
A5=	4.392857289673030E+6
A6=	-8.820139639579415E+6
A7=	10.626589816952862E+6
A8=	-7.139377261844913E+6
A9=	2.064048602008018E+6
Rmes(Ohm)	Tmes(K)	Tfit(K)	dT(mK)	Courant(A)
1.597231E+3	9.9283	9.9315	-3.1998	1E-5
1.461661E+3	10.9345	10.9316	2.8956	1E-5
1.350627E+3	11.9406	11.9360	4.5796	1E-5
1.259456E+3	12.9225	12.9215	0.9919	1E-5
1.181270E+3	13.9116	13.9113	0.3321	1E-5
1.113328E+3	14.9022	14.9042	-1.9581	1E-5
1.048113E+3	15.9949	15.9978	-2.9472	1E-5
9.954026E+2	16.9992	17.0020	-2.8064	1E-5
9.487018E+2	17.9942	17.9975	-3.2857	1E-5
9.066642E+2	18.9891	18.9922	-3.0598	1E-5
8.685030E+2	19.9861	19.9880	-1.9423	1E-5
8.336014E+2	20.9862	20.9871	-0.9305	1E-5
8.014661E+2	21.9913	21.9915	-0.1878	1E-5
7.721066E+2	22.9888	22.9888	0.0327	1E-5
7.449931E+2	23.9868	23.9854	1.4061	1E-5
7.197828E+2	24.9883	24.9846	3.6715	1E-5
6.963627E+2	25.9865	25.9824	4.1319	1E-5
6.745101E+2	26.9851	26.9800	5.1457	1E-5
6.540584E+2	27.9824	27.9777	4.7159	1E-5
6.348273E+2	28.9806	28.9779	2.7465	1E-5
6.187710E+2	29.8667	29.8630	3.6513	1E-5
5.346329E+2	35.4101	35.4130	-2.8812	1E-5
4.807739E+2	40.0175	40.0242	-6.7489	1E-5
3.843870E+2	51.5699	51.5851	-15.2480	1E-5
3.317944E+2	60.7598	60.7679	-8.1298	1E-5
2.902647E+2	70.3860	70.3837	2.2635	1E-5
2.584969E+2	79.8358	79.8206	15.2140	1E-4
2.357633E+2	88.1316	88.1188	12.7679	1E-4
2.145655E+2	97.4201	97.4104	9.7064	1E-4
1.964303E+2	106.9154	106.9064	9.0242	1E-4
1.805521E+2	116.7223	116.7289	-6.5506	1E-4
1.666514E+2	126.7816	126.7965	-14.9163	1E-4
1.551567E+2	136.3998	136.4176	-17.8281	1E-4
1.442667E+2	146.8605	146.8755	-15.0291	1E-4
1.369213E+2	154.8128	154.8236	-10.7983	1E-4
1.270321E+2	166.9106	166.9129	-2.2610	1E-4
1.245913E+2	170.1854	170.1812	4.2088	1E-4
1.165054E+2	181.9778	181.9591	18.7218	1E-4
1.103462E+2	192.0825	192.0660	16.4708	1E-4
1.067917E+2	198.4433	198.4246	18.6910	1E-4
1.018421E+2	208.0380	208.0184	19.6192	1E-4
9.832872E+1	215.4242	215.4189	5.2650	1E-4
9.320179E+1	227.2237	227.2350	-11.2521	1E-4
8.954358E+1	236.4892	236.5111	-21.9114	1E-4
8.498361E+1	249.1879	249.2231	-35.2412	1E-4
7.802417E+1	271.5786	271.5988	-20.1916	1E-4
7.629611E+1	277.8246	277.8213	3.3464	1E-4
7.336323E+1	289.1414	289.1097	31.7464	1E-4
7.296883E+1	290.7377	290.7043	33.4068	1E-4
6.841534E+1	310.6564	310.6819	-25.4674	1E-4
