Thermometre :	CX_LS_X104882
Environment :	VA
Date :	14/10/2015
Function :	 logT = Sum ( Ai / logR^i )
Coefficients :	
A0=	605.652913059867610E+0
A1=	-10.184563871168013E+3
A2=	70.031788331137868E+3
A3=	-241.829734049768970E+3
A4=	359.433185458508900E+3
A5=	275.271120167906400E+3
A6=	-2.101474262810154E+6
A7=	3.694033799335625E+6
A8=	-3.026206374691009E+6
A9=	993.263133666220120E+3
Rmes(Ohm)	Tmes(K)	Tfit(K)	dT(mK)	Courant(A)
2.026271E+3	9.9310	9.9341	-3.0531	1E-5
1.843290E+3	10.9372	10.9341	3.0631	1E-5
1.696066E+3	11.9294	11.9264	2.9982	1E-5
1.573450E+3	12.9214	12.9191	2.2581	1E-5
1.469191E+3	13.9140	13.9137	0.3150	1E-5
1.379380E+3	14.9063	14.9075	-1.2002	1E-5
1.293920E+3	15.9933	15.9970	-3.7197	1E-5
1.224799E+3	16.9998	17.0016	-1.8331	1E-5
1.163508E+3	17.9986	18.0020	-3.4230	1E-5
1.108585E+3	18.9967	19.0006	-3.9367	1E-5
1.059023E+3	19.9950	19.9976	-2.5955	1E-5
1.013935E+3	20.9932	20.9951	-1.8799	1E-5
9.727905E+2	21.9904	21.9910	-0.5615	1E-5
9.350060E+2	22.9876	22.9869	0.6977	1E-5
9.001938E+2	23.9856	23.9820	3.5800	1E-5
8.677613E+2	24.9880	24.9839	4.0615	1E-5
8.378020E+2	25.9867	25.9809	5.8475	1E-5
8.099191E+2	26.9824	26.9770	5.4286	1E-5
7.838911E+2	27.9785	27.9724	6.0669	1E-5
5.655681E+2	39.9685	39.9730	-4.5183	1E-5
5.635527E+2	40.1201	40.1270	-6.9015	1E-5
4.412886E+2	52.0417	52.0498	-8.0908	1E-5
3.761265E+2	61.4752	61.4851	-9.9411	1E-5
3.258394E+2	71.2611	71.2583	2.7941	1E-5
2.881258E+2	80.7533	80.7370	16.3258	1E-4
2.617459E+2	88.9272	88.9167	10.5344	1E-4
2.351435E+2	98.9370	98.9262	10.8354	1E-4
2.140208E+2	108.5367	108.5406	-3.9029	1E-4
1.953563E+2	118.6437	118.6519	-8.1916	1E-4
1.805587E+2	128.0422	128.0487	-6.5206	1E-4
1.657685E+2	138.9803	138.9933	-13.0081	1E-4
1.534442E+2	149.5938	149.6058	-12.0484	1E-4
1.449861E+2	157.8504	157.8604	-9.9930	1E-4
1.343673E+2	169.6032	169.6008	2.4475	1E-4
1.308302E+2	173.9234	173.9109	12.5265	1E-4
1.213137E+2	186.7105	186.6956	14.9121	1E-4
1.149625E+2	196.3690	196.3606	8.3555	1E-4
1.109407E+2	203.0416	203.0376	4.0045	1E-4
1.055758E+2	212.7324	212.7216	10.7676	1E-4
1.015916E+2	220.5817	220.5680	13.7183	1E-4
9.549882E+1	233.8177	233.8295	-11.8228	1E-4
9.157826E+1	243.2766	243.3002	-23.6109	1E-4
8.665818E+1	256.3884	256.4133	-24.8923	1E-4
8.177996E+1	271.0026	271.0104	-7.8018	1E-4
7.888185E+1	280.5876	280.5738	13.7555	1E-4
7.597218E+1	290.9811	290.9626	18.4959	1E-4
7.336649E+1	301.0753	301.0456	29.7087	1E-4
7.098815E+1	310.9799	311.0100	-30.0647	1E-4
