Thermometre :	CX_LS_X106644
Environment :	VA
Date :	14/10/2015
Function :	 logT = Sum ( Ai / logR^i )
Coefficients :	
A0=	773.289889002558880E+0
A1=	-12.612439599699146E+3
A2=	83.839940108979688E+3
A3=	-276.892924757048430E+3
A4=	370.795528516749500E+3
A5=	441.607813811485660E+3
A6=	-2.560120838096763E+6
A7=	4.258919050988234E+6
A8=	-3.367873809949373E+6
A9=	1.073533596064209E+6
Rmes(Ohm)	Tmes(K)	Tfit(K)	dT(mK)	Courant(A)
1.548618E+3	9.9308	9.9342	-3.3531	1E-5
1.419016E+3	10.9373	10.9342	3.1142	1E-5
1.313954E+3	11.9295	11.9256	3.8755	1E-5
1.225711E+3	12.9213	12.9187	2.5651	1E-5
1.150146E+3	13.9140	13.9144	-0.3941	1E-5
1.084751E+3	14.9063	14.9082	-1.8874	1E-5
1.022217E+3	15.9947	15.9969	-2.2147	1E-5
9.712409E+2	17.0002	17.0035	-3.3439	1E-5
9.259616E+2	17.9992	18.0032	-3.9535	1E-5
8.852280E+2	18.9969	19.0005	-3.6377	1E-5
8.482654E+2	19.9953	19.9978	-2.5062	1E-5
8.145207E+2	20.9937	20.9954	-1.7141	1E-5
7.836057E+2	21.9914	21.9919	-0.4695	1E-5
7.551148E+2	22.9891	22.9886	0.4576	1E-5
7.287761E+2	23.9883	23.9849	3.4128	1E-5
7.042434E+2	24.9890	24.9847	4.3462	1E-5
6.814544E+2	25.9883	25.9821	6.2327	1E-5
6.601773E+2	26.9849	26.9792	5.7287	1E-5
6.402596E+2	27.9818	27.9759	5.9168	1E-5
4.708701E+2	40.0047	40.0096	-4.9260	1E-5
4.692915E+2	40.1598	40.1636	-3.8352	1E-5
3.725766E+2	52.0954	52.1098	-14.4112	1E-5
3.205729E+2	61.5067	61.5142	-7.4650	1E-5
2.798597E+2	71.2984	71.2951	3.2849	1E-5
2.490404E+2	80.8069	80.7927	14.1607	1E-4
2.273420E+2	89.0057	88.9892	16.4547	1E-4
2.053836E+2	99.0011	98.9927	8.4198	1E-4
1.878270E+2	108.6053	108.6077	-2.4103	1E-4
1.722244E+2	118.7162	118.7205	-4.3229	1E-4
1.597282E+2	128.1560	128.1696	-13.5525	1E-4
1.473110E+2	139.0427	139.0571	-14.3943	1E-4
1.368637E+2	149.6455	149.6610	-15.5422	1E-4
1.296576E+2	157.9117	157.9184	-6.6956	1E-4
1.205883E+2	169.6559	169.6478	8.0656	1E-4
1.175490E+2	173.9784	173.9678	10.5888	1E-4
1.093754E+2	186.7492	186.7415	7.6878	1E-4
1.039026E+2	196.4095	196.3958	13.6513	1E-4
1.004250E+2	203.0809	203.0728	8.1380	1E-4
9.578200E+1	212.7556	212.7436	12.0121	1E-4
9.228106E+1	220.6964	220.6845	11.8605	1E-4
8.701815E+1	233.8309	233.8443	-13.4491	1E-4
8.361230E+1	243.2428	243.2643	-21.4716	1E-4
7.929552E+1	256.3723	256.4029	-30.6288	1E-4
7.501830E+1	270.9665	270.9768	-10.2723	1E-4
7.247587E+1	280.5187	280.5055	13.2207	1E-4
6.991165E+1	290.9113	290.8840	27.2609	1E-4
6.760089E+1	301.0358	301.0062	29.6440	1E-4
6.551506E+1	310.8521	310.8854	-33.2633	1E-4
