Thermometre :	CX_LS_X106589
Environment :	VA
Date :	14/10/2015
Function :	 logT = Sum ( Ai / logR^i )
Coefficients :	
A0=	862.932988685931600E+0
A1=	-14.356274223310806E+3
A2=	98.950249753802956E+3
A3=	-353.565251790378240E+3
A4=	622.148888269749820E+3
A5=	-110.880988130339420E+3
A6=	-1.745574800471830E+6
A7=	3.482182782567906E+6
A8=	-2.933300680768196E+6
A9=	964.909961001017950E+3
Rmes(Ohm)	Tmes(K)	Tfit(K)	dT(mK)	Courant(A)
1.505501E+3	9.9309	9.9340	-3.0536	1E-5
1.380558E+3	10.9373	10.9350	2.3155	1E-5
1.279435E+3	11.9294	11.9250	4.3550	1E-5
1.194259E+3	12.9213	12.9188	2.5000	1E-5
1.121335E+3	13.9140	13.9143	-0.2609	1E-5
1.058174E+3	14.9063	14.9080	-1.7078	1E-5
9.977385E+2	15.9944	15.9967	-2.2695	1E-5
9.484168E+2	17.0001	17.0038	-3.7102	1E-5
9.046252E+2	17.9991	18.0030	-3.8807	1E-5
8.651901E+2	18.9969	19.0004	-3.5116	1E-5
8.293921E+2	19.9952	19.9976	-2.4354	1E-5
7.966924E+2	20.9936	20.9953	-1.7070	1E-5
7.667271E+2	21.9912	21.9917	-0.4552	1E-5
7.391006E+2	22.9888	22.9883	0.5011	1E-5
7.135536E+2	23.9877	23.9843	3.3939	1E-5
6.897356E+2	24.9888	24.9844	4.3754	1E-5
6.676110E+2	25.9880	25.9818	6.1719	1E-5
6.469534E+2	26.9843	26.9786	5.6849	1E-5
6.276069E+2	27.9811	27.9751	5.9790	1E-5
4.628450E+2	39.9968	40.0016	-4.8329	1E-5
4.613054E+2	40.1511	40.1557	-4.5916	1E-5
3.669388E+2	52.0836	52.0977	-14.0525	1E-5
3.160629E+2	61.4998	61.5074	-7.5984	1E-5
2.762183E+2	71.2901	71.2857	4.4323	1E-5
2.460259E+2	80.7952	80.7793	15.8520	1E-4
2.247466E+2	88.9886	88.9736	15.0496	1E-4
2.031847E+2	98.9871	98.9797	7.4408	1E-4
1.859388E+2	108.5903	108.5943	-4.0353	1E-4
1.706036E+2	118.7001	118.7063	-6.2420	1E-4
1.583282E+2	128.1309	128.1437	-12.7928	1E-4
1.460969E+2	139.0295	139.0423	-12.8371	1E-4
1.358116E+2	149.6342	149.6473	-13.1048	1E-4
1.287158E+2	157.8983	157.9040	-5.6571	1E-4
1.197788E+2	169.6444	169.6366	7.8297	1E-4
1.167850E+2	173.9664	173.9547	11.6715	1E-4
1.087249E+2	186.7406	186.7333	7.3042	1E-4
1.033274E+2	196.4007	196.3889	11.7735	1E-4
9.989693E+1	203.0724	203.0663	6.1012	1E-4
9.531475E+1	212.7505	212.7398	10.6568	1E-4
9.186814E+1	220.6714	220.6609	10.5356	1E-4
8.666461E+1	233.8280	233.8407	-12.6664	1E-4
8.329869E+1	243.2502	243.2698	-19.5870	1E-4
7.903767E+1	256.3759	256.4035	-27.6020	1E-4
7.481167E+1	270.9745	270.9837	-9.2100	1E-4
7.229833E+1	280.5337	280.5211	12.6176	1E-4
6.976484E+1	290.9265	290.9021	24.3841	1E-4
6.748329E+1	301.0445	301.0167	27.8200	1E-4
6.541818E+1	310.8799	310.9109	-30.9591	1E-4
