Thermometre :	CX_LS_X104885
Environment :	VA
Date :	14/10/2015
Function :	 logT = Sum ( Ai / logR^i )
Coefficients :	
A0=	695.482461404131070E+0
A1=	-11.881104019501970E+3
A2=	84.246993731596289E+3
A3=	-311.455447411313190E+3
A4=	579.951997750859480E+3
A5=	-194.865520847826380E+3
A6=	-1.424350114004555E+6
A7=	3.056837430603791E+6
A8=	-2.670043385171284E+6
A9=	903.132087381833350E+3
Rmes(Ohm)	Tmes(K)	Tfit(K)	dT(mK)	Courant(A)
1.910852E+3	9.9310	9.9339	-2.9213	1E-5
1.741790E+3	10.9372	10.9349	2.2734	1E-5
1.605806E+3	11.9294	11.9254	4.0277	1E-5
1.491978E+3	12.9214	12.9192	2.2399	1E-5
1.395112E+3	13.9140	13.9138	0.1837	1E-5
1.311531E+3	14.9063	14.9077	-1.4316	1E-5
1.231941E+3	15.9934	15.9964	-2.9537	1E-5
1.167334E+3	16.9998	17.0023	-2.5123	1E-5
1.110055E+3	17.9986	18.0026	-4.0384	1E-5
1.058689E+3	18.9967	19.0007	-3.9776	1E-5
1.012255E+3	19.9950	19.9977	-2.6558	1E-5
9.699683E+2	20.9932	20.9951	-1.9398	1E-5
9.313445E+2	21.9904	21.9909	-0.5306	1E-5
8.958361E+2	22.9877	22.9869	0.7842	1E-5
8.630969E+2	23.9857	23.9819	3.7949	1E-5
8.325671E+2	24.9881	24.9838	4.3399	1E-5
8.043414E+2	25.9867	25.9806	6.0671	1E-5
7.780511E+2	26.9824	26.9767	5.6849	1E-5
7.534872E+2	27.9786	27.9723	6.2917	1E-5
5.466813E+2	39.9693	39.9741	-4.7705	1E-5
5.447623E+2	40.1210	40.1283	-7.2971	1E-5
4.282358E+2	52.0430	52.0522	-9.1732	1E-5
3.658926E+2	61.4760	61.4858	-9.7884	1E-5
3.176339E+2	71.2620	71.2582	3.8498	1E-5
2.813489E+2	80.7546	80.7368	17.7510	1E-4
2.559165E+2	88.9291	88.9173	11.7895	1E-4
2.302214E+2	98.9386	98.9294	9.2482	1E-4
2.097873E+2	108.5384	108.5452	-6.8220	1E-4
1.917094E+2	118.6454	118.6547	-9.3254	1E-4
1.773555E+2	128.0449	128.0506	-5.7236	1E-4
1.629902E+2	138.9817	138.9935	-11.8182	1E-4
1.510029E+2	149.5950	149.6053	-10.3000	1E-4
1.427659E+2	157.8519	157.8604	-8.4739	1E-4
1.324133E+2	169.6044	169.6017	2.7275	1E-4
1.289612E+2	173.9248	173.9131	11.7341	1E-4
1.196681E+2	186.7114	186.6981	13.2825	1E-4
1.134601E+2	196.3700	196.3621	7.8895	1E-4
1.095253E+2	203.0425	203.0396	2.8923	1E-4
1.042738E+2	212.7330	212.7226	10.3766	1E-4
1.003697E+2	220.5845	220.5710	13.5473	1E-4
9.439787E+1	233.8180	233.8290	-10.9924	1E-4
9.055192E+1	243.2758	243.2976	-21.7686	1E-4
8.572041E+1	256.3880	256.4124	-24.3861	1E-4
8.092676E+1	271.0017	271.0098	-8.0984	1E-4
7.807706E+1	280.5860	280.5730	13.0200	1E-4
7.521434E+1	290.9792	290.9612	17.9537	1E-4
7.264863E+1	301.0743	301.0451	29.1774	1E-4
7.030612E+1	310.9764	311.0056	-29.2392	1E-4
