Thermometre :	CX_LS_X107604
Environment :	VA
Date :	25/02/2016
Function :	 logT = Sum ( Ai / logR^i )
Coefficients :	
A0=	1.373470337140407E+3
A1=	-21.908293397898426E+3
A2=	146.186348815488890E+3
A3=	-516.267545965587140E+3
A4=	961.596341278189910E+3
A5=	-570.774141884197830E+3
A6=	-1.277084245945814E+6
A7=	3.038592852714173E+6
A8=	-2.586293521248279E+6
A9=	831.896009926032040E+3
Rmes(Ohm)	Tmes(K)	Tfit(K)	dT(mK)	Courant(A)
8.965037E+2	9.9282	9.9317	-3.5121	1E-5
8.313300E+2	10.9345	10.9313	3.1864	1E-5
7.774943E+2	11.9336	11.9282	5.3815	1E-5
7.319556E+2	12.9234	12.9227	0.7483	1E-5
6.928241E+2	13.9116	13.9122	-0.5556	1E-5
6.584614E+2	14.9021	14.9042	-2.0633	1E-5
6.251241E+2	15.9940	15.9968	-2.7842	1E-5
5.978613E+2	16.9989	17.0018	-2.8637	1E-5
5.734979E+2	17.9952	17.9980	-2.7920	1E-5
5.514251E+2	18.9887	18.9917	-3.0339	1E-5
5.312063E+2	19.9856	19.9880	-2.4239	1E-5
5.126063E+2	20.9852	20.9861	-0.9311	1E-5
4.953425E+2	21.9906	21.9907	-0.0769	1E-5
4.794780E+2	22.9877	22.9875	0.2038	1E-5
4.647426E+2	23.9846	23.9833	1.3212	1E-5
4.509385E+2	24.9876	24.9834	4.2369	1E-5
4.380639E+2	25.9850	25.9804	4.6114	1E-5
4.259879E+2	26.9828	26.9772	5.6090	1E-5
4.146275E+2	27.9795	27.9742	5.2652	1E-5
4.038811E+2	28.9787	28.9749	3.8281	1E-5
3.947320E+2	29.8731	29.8744	-1.2683	1E-5
3.471397E+2	35.3983	35.3992	-0.9397	1E-5
3.159120E+2	40.0078	40.0143	-6.4577	1E-5
2.587969E+2	51.5610	51.5768	-15.7949	1E-5
2.268833E+2	60.7455	60.7533	-7.7971	1E-5
2.012307E+2	70.3700	70.3665	3.5351	1E-5
1.813653E+2	79.7878	79.7750	12.8198	1E-4
1.669307E+2	88.0895	88.0743	15.1830	1E-4
1.533189E+2	97.3884	97.3775	10.8810	1E-4
1.415730E+2	106.8777	106.8748	2.9275	1E-4
1.311977E+2	116.6868	116.6959	-9.1125	1E-4
1.220393E+2	126.7488	126.7597	-10.8710	1E-4
1.144156E+2	136.3552	136.3664	-11.2486	1E-4
1.071158E+2	146.8305	146.8464	-15.8894	1E-4
1.021746E+2	154.7805	154.7923	-11.7953	1E-4
9.547681E+1	166.8829	166.8883	-5.4116	1E-4
9.381580E+1	170.1628	170.1597	3.1273	1E-4
8.830098E+1	181.9430	181.9273	15.6628	1E-4
8.407076E+1	192.0589	192.0393	19.5642	1E-4
8.161893E+1	198.4273	198.4035	23.7999	1E-4
7.818410E+1	208.0502	208.0307	19.5418	1E-4
7.575336E+1	215.4110	215.4073	3.7453	1E-4
7.217701E+1	227.2220	227.2352	-13.1720	1E-4
6.960865E+1	236.5199	236.5448	-24.9231	1E-4
6.641077E+1	249.2061	249.2407	-34.5545	1E-4
6.150088E+1	271.5818	271.5993	-17.5076	1E-4
6.027676E+1	277.8230	277.8170	6.0021	1E-4
5.817523E+1	289.2385	289.2054	33.0968	1E-4
5.789935E+1	290.8025	290.7737	28.7805	1E-4
5.464655E+1	310.7556	310.7809	-25.2929	1E-4
