Thermometre :	CX_LS_X108164
Environment :	VA
Date :	25/02/2016
Function :	 logT = Sum ( Ai / logR^i )
Coefficients :	
A0=	1.868487510327864E+3
A1=	-30.028380030282780E+3
A2=	204.817965176118740E+3
A3=	-761.755100123969370E+3
A4=	1.621956443983320E+6
A5=	-1.763762853687925E+6
A6=	186.206885475237530E+3
A7=	1.848189748428551E+6
A8=	-1.996355837607683E+6
A9=	695.231253233192490E+3
Rmes(Ohm)	Tmes(K)	Tfit(K)	dT(mK)	Courant(A)
7.571255E+2	9.9282	9.9320	-3.7592	1E-5
7.052086E+2	10.9345	10.9312	3.3233	1E-5
6.620389E+2	11.9349	11.9292	5.6597	1E-5
6.254618E+2	12.9232	12.9219	1.3134	1E-5
5.938111E+2	13.9116	13.9124	-0.7655	1E-5
5.659369E+2	14.9021	14.9046	-2.4694	1E-5
5.388030E+2	15.9941	15.9971	-3.0366	1E-5
5.165397E+2	16.9990	17.0020	-2.9742	1E-5
4.965978E+2	17.9950	17.9973	-2.3402	1E-5
4.784429E+2	18.9888	18.9923	-3.4846	1E-5
4.618017E+2	19.9857	19.9879	-2.1599	1E-5
4.464285E+2	20.9854	20.9870	-1.5713	1E-5
4.321478E+2	21.9907	21.9910	-0.3158	1E-5
4.189895E+2	22.9879	22.9877	0.1504	1E-5
4.067382E+2	23.9850	23.9837	1.2561	1E-5
3.952442E+2	24.9877	24.9835	4.2022	1E-5
3.844990E+2	25.9853	25.9806	4.7022	1E-5
3.744017E+2	26.9832	26.9775	5.7174	1E-5
3.648864E+2	27.9800	27.9746	5.4330	1E-5
3.558713E+2	28.9791	28.9751	3.9907	1E-5
3.482053E+2	29.8720	29.8720	0.0097	1E-5
3.079968E+2	35.4004	35.4012	-0.8215	1E-5
2.814605E+2	40.0095	40.0160	-6.4995	1E-5
2.325183E+2	51.5626	51.5791	-16.5481	1E-5
2.049202E+2	60.7480	60.7568	-8.7867	1E-5
1.825933E+2	70.3728	70.3705	2.3135	1E-5
1.651992E+2	79.7966	79.7835	13.0581	1E-4
1.525107E+2	88.0972	88.0814	15.7552	1E-4
1.404980E+2	97.3942	97.3818	12.4337	1E-4
1.300886E+2	106.8846	106.8783	6.3275	1E-4
1.208579E+2	116.6933	116.7014	-8.1084	1E-4
1.126825E+2	126.7547	126.7672	-12.5491	1E-4
1.058557E+2	136.3633	136.3774	-14.1308	1E-4
9.930488E+1	146.8360	146.8546	-18.5726	1E-4
9.485951E+1	154.7862	154.7997	-13.4919	1E-4
8.882092E+1	166.8879	166.8931	-5.1678	1E-4
8.732108E+1	170.1669	170.1634	3.5151	1E-4
8.233236E+1	181.9494	181.9320	17.3681	1E-4
7.849951E+1	192.0632	192.0416	21.5943	1E-4
7.627478E+1	198.4302	198.4047	25.4551	1E-4
7.315535E+1	208.0480	208.0268	21.1862	1E-4
7.094215E+1	215.4134	215.4092	4.2320	1E-4
6.768432E+1	227.2223	227.2363	-14.0031	1E-4
6.534244E+1	236.5143	236.5407	-26.3779	1E-4
6.241978E+1	249.2029	249.2405	-37.6049	1E-4
5.792416E+1	271.5812	271.6008	-19.6163	1E-4
5.680163E+1	277.8233	277.8185	4.7594	1E-4
5.487675E+1	289.2209	289.1840	36.9148	1E-4
5.462236E+1	290.7910	290.7588	32.2093	1E-4
5.163398E+1	310.7375	310.7652	-27.7390	1E-4
