Thermometre :	CX_LS_X107492
Environment :	VA
Date :	14/10/2015
Function :	 logT = Sum ( Ai / logR^i )
Coefficients :	
A0=	1.095678634443301E+3
A1=	-16.974240658469451E+3
A2=	106.466779428043080E+3
A3=	-324.666604733965530E+3
A4=	348.396066252523450E+3
A5=	780.774657809505940E+3
A6=	-3.322666003919070E+6
A7=	5.076754643604804E+6
A8=	-3.790855313000513E+6
A9=	1.151428232975048E+6
Rmes(Ohm)	Tmes(K)	Tfit(K)	dT(mK)	Courant(A)
1.017169E+3	9.9307	9.9343	-3.5861	1E-5
9.414292E+2	10.9373	10.9336	3.7121	1E-5
8.791903E+2	11.9295	11.9261	3.4478	1E-5
8.264488E+2	12.9212	12.9189	2.3239	1E-5
7.808940E+2	13.9141	13.9137	0.4400	1E-5
7.410918E+2	14.9064	14.9079	-1.4951	1E-5
7.026694E+2	15.9956	15.9991	-3.5385	1E-5
6.712514E+2	17.0005	17.0040	-3.5332	1E-5
6.431252E+2	17.9996	18.0033	-3.7190	1E-5
6.176664E+2	18.9970	19.0007	-3.6844	1E-5
5.944354E+2	19.9955	19.9981	-2.5718	1E-5
5.731214E+2	20.9939	20.9957	-1.7627	1E-5
5.534932E+2	21.9920	21.9925	-0.5008	1E-5
5.353254E+2	22.9901	22.9895	0.6087	1E-5
5.184543E+2	23.9900	23.9862	3.8156	1E-5
5.026933E+2	24.9896	24.9853	4.3151	1E-5
4.879810E+2	25.9894	25.9830	6.3897	1E-5
4.741943E+2	26.9864	26.9804	5.9841	1E-5
4.612396E+2	27.9840	27.9777	6.2996	1E-5
3.490173E+2	40.0278	40.0344	-6.6002	1E-5
3.479537E+2	40.1853	40.1887	-3.4376	1E-5
2.821420E+2	52.1297	52.1451	-15.3579	1E-5
2.461686E+2	61.5267	61.5333	-6.6359	1E-5
2.175509E+2	71.3219	71.3179	3.9834	1E-5
1.956117E+2	80.8409	80.8263	14.5877	1E-4
1.800093E+2	89.0556	89.0346	20.9537	1E-4
1.640988E+2	99.0418	99.0375	4.3472	1E-4
1.512569E+2	108.6491	108.6541	-4.9715	1E-4
1.397492E+2	118.7620	118.7667	-4.6858	1E-4
1.304361E+2	128.2276	128.2421	-14.5500	1E-4
1.211705E+2	139.0812	139.0919	-10.7412	1E-4
1.132910E+2	149.6785	149.6925	-13.9966	1E-4
1.078164E+2	157.9505	157.9585	-7.9749	1E-4
1.008971E+2	169.6896	169.6821	7.4670	1E-4
9.856341E+1	174.0134	174.0083	5.1353	1E-4
9.227787E+1	186.7736	186.7630	10.6453	1E-4
8.803897E+1	196.4354	196.4176	17.8051	1E-4
8.533464E+1	203.1058	203.0959	9.8690	1E-4
8.171423E+1	212.7704	212.7598	10.6195	1E-4
7.895374E+1	220.7697	220.7554	14.2803	1E-4
7.483324E+1	233.8394	233.8562	-16.8056	1E-4
7.215074E+1	243.2211	243.2451	-23.9629	1E-4
6.872245E+1	256.3622	256.3949	-32.6932	1E-4
6.531614E+1	270.9438	270.9534	-9.6227	1E-4
6.328554E+1	280.4747	280.4622	12.4666	1E-4
6.122826E+1	290.8669	290.8350	31.9340	1E-4
5.936414E+1	301.0108	300.9789	31.8828	1E-4
5.768899E+1	310.7713	310.8082	-36.9010	1E-4
