Thermometre :	CX_LS_X104963
Environment :	VA
Date :	14/10/2015
Function :	 logT = Sum ( Ai / logR^i )
Coefficients :	
A0=	680.608672867512610E+0
A1=	-11.696946175459216E+3
A2=	83.564204658236907E+3
A3=	-312.389498920829090E+3
A4=	595.883584706396560E+3
A5=	-253.120969034660700E+3
A6=	-1.313735581633995E+6
A7=	2.938328313098991E+6
A8=	-2.602799967087221E+6
A9=	887.691515374468760E+3
Rmes(Ohm)	Tmes(K)	Tfit(K)	dT(mK)	Courant(A)
1.984096E+3	9.9310	9.9338	-2.8428	1E-5
1.806721E+3	10.9372	10.9350	2.2464	1E-5
1.664183E+3	11.9294	11.9258	3.5912	1E-5
1.545108E+3	12.9214	12.9190	2.3916	1E-5
1.443828E+3	13.9140	13.9134	0.6049	1E-5
1.356483E+3	14.9063	14.9073	-1.0147	1E-5
1.273285E+3	15.9936	15.9972	-3.5659	1E-5
1.205907E+3	16.9999	17.0027	-2.7557	1E-5
1.146197E+3	17.9987	18.0026	-3.9486	1E-5
1.092669E+3	18.9968	19.0006	-3.7590	1E-5
1.044301E+3	19.9950	19.9975	-2.5071	1E-5
1.000270E+3	20.9933	20.9951	-1.7741	1E-5
9.600651E+2	21.9906	21.9911	-0.5278	1E-5
9.231230E+2	22.9879	22.9873	0.6025	1E-5
8.890713E+2	23.9862	23.9826	3.5680	1E-5
8.573584E+2	24.9882	24.9839	4.2644	1E-5
8.280277E+2	25.9871	25.9810	6.0962	1E-5
8.007174E+2	26.9829	26.9773	5.5812	1E-5
7.752079E+2	27.9792	27.9732	5.9838	1E-5
5.607988E+2	39.9764	39.9810	-4.5657	1E-5
5.588181E+2	40.1288	40.1349	-6.0621	1E-5
4.383733E+2	52.0535	52.0640	-10.5433	1E-5
3.741201E+2	61.4821	61.4913	-9.1553	1E-5
3.243984E+2	71.2692	71.2655	3.6837	1E-5
2.870477E+2	80.7650	80.7483	16.7345	1E-4
2.608921E+2	88.9446	88.9325	12.0896	1E-4
2.345055E+2	98.9510	98.9421	8.8836	1E-4
2.135334E+2	108.5517	108.5570	-5.2934	1E-4
1.949886E+2	118.6594	118.6673	-7.8695	1E-4
1.802581E+2	128.0673	128.0742	-6.8896	1E-4
1.655551E+2	138.9956	139.0072	-11.6051	1E-4
1.532836E+2	149.6051	149.6166	-11.4853	1E-4
1.448524E+2	157.8638	157.8725	-8.7388	1E-4
1.342635E+2	169.6147	169.6119	2.8167	1E-4
1.307317E+2	173.9354	173.9252	10.1524	1E-4
1.212357E+2	186.7189	186.7048	14.0561	1E-4
1.148920E+2	196.3779	196.3691	8.7549	1E-4
1.108730E+2	203.0501	203.0460	4.1437	1E-4
1.055114E+2	212.7375	212.7266	10.9181	1E-4
1.015161E+2	220.6068	220.5944	12.4390	1E-4
9.543120E+1	233.8206	233.8320	-11.3661	1E-4
9.151129E+1	243.2692	243.2903	-21.0923	1E-4
8.658084E+1	256.3848	256.4101	-25.2596	1E-4
8.169361E+1	270.9946	271.0034	-8.7652	1E-4
7.879019E+1	280.5726	280.5592	13.3776	1E-4
7.587205E+1	290.9657	290.9463	19.3721	1E-4
7.325492E+1	301.0665	301.0385	28.0037	1E-4
7.087250E+1	310.9516	310.9806	-28.9815	1E-4
