Thermometre :	CX_LS_X108165
Environment :	VA
Date :	25/02/2016
Function :	 logT = Sum ( Ai / logR^i )
Coefficients :	
A0=	1.447738832839517E+3
A1=	-21.728058911188375E+3
A2=	132.237215605280070E+3
A3=	-392.571106186958500E+3
A4=	418.330115848633340E+3
A5=	844.200371430090400E+3
A6=	-3.568877444012965E+6
A7=	5.312440047265775E+6
A8=	-3.854330251921010E+6
A9=	1.136587091143942E+6
Rmes(Ohm)	Tmes(K)	Tfit(K)	dT(mK)	Courant(A)
7.633934E+2	9.9282	9.9317	-3.5185	1E-5
7.109236E+2	10.9345	10.9315	3.0202	1E-5
6.672994E+2	11.9351	11.9299	5.1775	1E-5
6.303680E+2	12.9232	12.9221	1.0780	1E-5
5.984269E+2	13.9116	13.9116	-0.0353	1E-5
5.702831E+2	14.9021	14.9034	-1.2902	1E-5
5.428442E+2	15.9942	15.9974	-3.1773	1E-5
5.203661E+2	16.9990	17.0022	-3.1589	1E-5
5.002211E+2	17.9950	17.9982	-3.1567	1E-5
4.818986E+2	18.9888	18.9929	-4.1397	1E-5
4.651129E+2	19.9857	19.9879	-2.1956	1E-5
4.496007E+2	20.9854	20.9868	-1.4184	1E-5
4.351896E+2	21.9907	21.9909	-0.1611	1E-5
4.219119E+2	22.9879	22.9876	0.2640	1E-5
4.095514E+2	23.9851	23.9836	1.4968	1E-5
3.979547E+2	24.9877	24.9834	4.2635	1E-5
3.871158E+2	25.9853	25.9805	4.8191	1E-5
3.769290E+2	26.9833	26.9775	5.7741	1E-5
3.673301E+2	27.9801	27.9748	5.3317	1E-5
3.582397E+2	28.9791	28.9751	4.0011	1E-5
3.505110E+2	29.8718	29.8717	0.1288	1E-5
3.099585E+2	35.4008	35.4020	-1.2038	1E-5
2.832077E+2	40.0098	40.0166	-6.8128	1E-5
2.338852E+2	51.5629	51.5787	-15.7649	1E-5
2.060792E+2	60.7485	60.7567	-8.1530	1E-5
1.835920E+2	70.3734	70.3709	2.5309	1E-5
1.660764E+2	79.7981	79.7861	11.9766	1E-4
1.533048E+2	88.0986	88.0849	13.6750	1E-4
1.412195E+2	97.3952	97.3835	11.7347	1E-4
1.307482E+2	106.8858	106.8784	7.3740	1E-4
1.214635E+2	116.6945	116.6996	-5.0653	1E-4
1.132376E+2	126.7558	126.7667	-10.9348	1E-4
1.063681E+2	136.3648	136.3788	-13.9765	1E-4
9.977656E+1	146.8370	146.8570	-20.0109	1E-4
9.530344E+1	154.7873	154.8027	-15.3862	1E-4
8.922747E+1	166.8888	166.8956	-6.7574	1E-4
8.771842E+1	170.1677	170.1655	2.2341	1E-4
8.269874E+1	181.9505	181.9333	17.1867	1E-4
7.884267E+1	192.0639	192.0409	22.9784	1E-4
7.660429E+1	198.4307	198.4036	27.1216	1E-4
7.346575E+1	208.0476	208.0255	22.1457	1E-4
7.123904E+1	215.4138	215.4081	5.7051	1E-4
6.796150E+1	227.2224	227.2361	-13.7071	1E-4
6.560567E+1	236.5133	236.5410	-27.7286	1E-4
6.266561E+1	249.2023	249.2420	-39.7381	1E-4
5.814365E+1	271.5811	271.6014	-20.3478	1E-4
5.701473E+1	277.8233	277.8174	5.8539	1E-4
5.507856E+1	289.2177	289.1817	36.0452	1E-4
5.482296E+1	290.7888	290.7546	34.1874	1E-4
5.181750E+1	310.7342	310.7625	-28.2825	1E-4
