Thermometre :	CX_LS_X107592
Environment :	VA
Date :	25/02/2016
Function :	 logT = Sum ( Ai / logR^i )
Coefficients :	
A0=	1.350331585694538E+3
A1=	-21.505688805367325E+3
A2=	143.006846307944860E+3
A3=	-501.185107022633600E+3
A4=	914.008038666875680E+3
A5=	-467.185459278650870E+3
A6=	-1.431971785450304E+6
A7=	3.190871390985609E+6
A8=	-2.674891023486732E+6
A9=	854.964921111497330E+3
Rmes(Ohm)	Tmes(K)	Tfit(K)	dT(mK)	Courant(A)
9.069151E+2	9.9281	9.9316	-3.4505	1E-5
8.407416E+2	10.9344	10.9313	3.1340	1E-5
7.861768E+2	11.9317	11.9267	5.0188	1E-5
7.398958E+2	12.9236	12.9226	1.0317	1E-5
7.001893E+2	13.9116	13.9123	-0.6957	1E-5
6.653598E+2	14.9021	14.9036	-1.5037	1E-5
6.315511E+2	15.9937	15.9962	-2.5080	1E-5
6.038883E+2	16.9989	17.0019	-3.0133	1E-5
5.791750E+2	17.9955	17.9988	-3.2767	1E-5
5.568245E+2	18.9886	18.9915	-2.9290	1E-5
5.363406E+2	19.9855	19.9874	-1.9176	1E-5
5.174718E+2	20.9849	20.9866	-1.6972	1E-5
4.999893E+2	21.9904	21.9906	-0.1985	1E-5
4.839202E+2	22.9873	22.9872	0.1123	1E-5
4.689947E+2	23.9841	23.9828	1.2576	1E-5
4.550067E+2	24.9874	24.9833	4.0691	1E-5
4.419709E+2	25.9846	25.9801	4.5218	1E-5
4.297437E+2	26.9822	26.9767	5.5132	1E-5
4.182409E+2	27.9788	27.9736	5.1613	1E-5
4.073564E+2	28.9782	28.9746	3.6032	1E-5
3.980867E+2	29.8748	29.8748	0.0201	1E-5
3.499458E+2	35.3952	35.3959	-0.6994	1E-5
3.183409E+2	40.0051	40.0119	-6.7679	1E-5
2.605812E+2	51.5587	51.5741	-15.3732	1E-5
2.283314E+2	60.7417	60.7487	-6.9501	1E-5
2.024098E+2	70.3657	70.3631	2.5511	1E-5
1.823574E+2	79.7751	79.7654	9.7099	1E-4
1.677796E+2	88.0784	88.0645	13.8719	1E-4
1.540348E+2	97.3800	97.3675	12.5305	1E-4
1.421786E+2	106.8677	106.8616	6.1043	1E-4
1.317025E+2	116.6776	116.6831	-5.4899	1E-4
1.224532E+2	126.7403	126.7500	-9.7117	1E-4
1.147568E+2	136.3436	136.3567	-13.0765	1E-4
1.073841E+2	146.8227	146.8420	-19.3354	1E-4
1.023974E+2	154.7719	154.7867	-14.7592	1E-4
9.563751E+1	166.8755	166.8826	-7.1466	1E-4
9.396112E+1	170.1568	170.1543	2.4995	1E-4
8.839842E+1	181.9340	181.9174	16.5965	1E-4
8.412965E+1	192.0527	192.0316	21.0943	1E-4
8.165616E+1	198.4231	198.3964	26.6587	1E-4
7.818888E+1	208.0534	208.0322	21.2209	1E-4
7.574001E+1	215.4076	215.4018	5.8200	1E-4
7.213242E+1	227.2216	227.2345	-12.8682	1E-4
6.953980E+1	236.5280	236.5555	-27.5182	1E-4
6.631641E+1	249.2109	249.2484	-37.4928	1E-4
6.136622E+1	271.5826	271.6016	-19.0430	1E-4
6.013211E+1	277.8225	277.8160	6.5481	1E-4
5.800757E+1	289.2636	289.2296	34.0157	1E-4
5.773095E+1	290.8197	290.7886	31.1041	1E-4
5.444872E+1	310.7819	310.8083	-26.3608	1E-4
