Thermometre :	CX_LS_X106583
Environment :	VA
Date :	25/02/2016
Function :	 logT = Sum ( Ai / logR^i )
Coefficients :	
A0=	882.350138404139330E+0
A1=	-14.651948600372185E+3
A2=	100.890488467394390E+3
A3=	-360.880677434345070E+3
A4=	640.367566097327970E+3
A5=	-144.622613362872450E+3
A6=	-1.695070388570733E+6
A7=	3.423648797453007E+6
A8=	-2.889631039441412E+6
A9=	950.124052565201300E+3
Rmes(Ohm)	Tmes(K)	Tfit(K)	dT(mK)	Courant(A)
1.464154E+3	9.9282	9.9318	-3.5561	1E-5
1.343223E+3	10.9345	10.9313	3.1505	1E-5
1.244041E+3	11.9393	11.9341	5.2434	1E-5
1.162106E+3	12.9226	12.9215	1.1174	1E-5
1.091766E+3	13.9116	13.9121	-0.5265	1E-5
1.030638E+3	14.9022	14.9037	-1.4707	1E-5
9.717433E+2	15.9947	15.9974	-2.6798	1E-5
9.240056E+2	16.9992	17.0023	-3.0711	1E-5
8.816782E+2	17.9944	17.9973	-2.8994	1E-5
8.434384E+2	18.9891	18.9933	-4.2450	1E-5
8.087329E+2	19.9860	19.9887	-2.6570	1E-5
7.769253E+2	20.9860	20.9876	-1.5596	1E-5
7.476044E+2	21.9912	21.9913	-0.0752	1E-5
7.207633E+2	22.9886	22.9883	0.2550	1E-5
6.959376E+2	23.9864	23.9849	1.5499	1E-5
6.728217E+2	24.9882	24.9840	4.1846	1E-5
6.513202E+2	25.9862	25.9816	4.5577	1E-5
6.312342E+2	26.9846	26.9790	5.5551	1E-5
6.124119E+2	27.9818	27.9767	5.1246	1E-5
5.946921E+2	28.9802	28.9768	3.4100	1E-5
5.798380E+2	29.8680	29.8647	3.3348	1E-5
5.020592E+2	35.4078	35.4103	-2.4633	1E-5
4.519998E+2	40.0156	40.0228	-7.2461	1E-5
3.620051E+2	51.5682	51.5847	-16.4503	1E-5
3.126839E+2	60.7570	60.7660	-8.9540	1E-5
2.736343E+2	70.3829	70.3801	2.8344	1E-5
2.437242E+2	79.8265	79.8109	15.5725	1E-4
2.222851E+2	88.1235	88.1091	14.4491	1E-4
2.022784E+2	97.4140	97.4037	10.3109	1E-4
1.851635E+2	106.9081	106.9008	7.2766	1E-4
1.701822E+2	116.7156	116.7231	-7.5349	1E-4
1.570707E+2	126.7753	126.7906	-15.2881	1E-4
1.462367E+2	136.3911	136.4084	-17.2656	1E-4
1.359715E+2	146.8548	146.8696	-14.7536	1E-4
1.290546E+2	154.8066	154.8165	-9.9303	1E-4
1.197451E+2	166.9052	166.9080	-2.7537	1E-4
1.174484E+2	170.1810	170.1770	3.9713	1E-4
1.098474E+2	181.9711	181.9509	20.2278	1E-4
1.040571E+2	192.0780	192.0614	16.6180	1E-4
1.007180E+2	198.4403	198.4204	19.9022	1E-4
9.606681E+1	208.0403	208.0224	17.9377	1E-4
9.277158E+1	215.4217	215.4184	3.2603	1E-4
8.796194E+1	227.2233	227.2357	-12.4117	1E-4
8.453089E+1	236.4951	236.5167	-21.5687	1E-4
8.026058E+1	249.1914	249.2250	-33.5501	1E-4
7.375043E+1	271.5792	271.5979	-18.6527	1E-4
7.213562E+1	277.8243	277.8205	3.7991	1E-4
6.939265E+1	289.1601	289.1274	32.7267	1E-4
6.902502E+1	290.7503	290.7201	30.1606	1E-4
6.477690E+1	310.6756	310.7006	-24.9802	1E-4
