Thermometre :	CX_LS_X107607
Environment :	VA
Date :	25/02/2016
Function :	 logT = Sum ( Ai / logR^i )
Coefficients :	
A0=	1.366558249120245E+3
A1=	-21.961290463091896E+3
A2=	148.019238128020170E+3
A3=	-531.102962007668220E+3
A4=	1.023360676026232E+6
A5=	-724.228457665956810E+3
A6=	-1.040560393294777E+6
A7=	2.816878779951328E+6
A8=	-2.470853956812788E+6
A9=	806.458363839881500E+3
Rmes(Ohm)	Tmes(K)	Tfit(K)	dT(mK)	Courant(A)
9.209128E+2	9.9282	9.9317	-3.5311	1E-5
8.535129E+2	10.9345	10.9314	3.1160	1E-5
7.978345E+2	11.9343	11.9290	5.2985	1E-5
7.508561E+2	12.9233	12.9220	1.2512	1E-5
7.104163E+2	13.9116	13.9123	-0.6857	1E-5
6.749529E+2	14.9021	14.9041	-2.0103	1E-5
6.405449E+2	15.9941	15.9970	-2.9396	1E-5
6.124261E+2	16.9990	17.0020	-2.9720	1E-5
5.873144E+2	17.9951	17.9978	-2.6813	1E-5
5.645429E+2	18.9887	18.9923	-3.6187	1E-5
5.437267E+2	19.9857	19.9876	-1.9374	1E-5
5.245489E+2	20.9853	20.9865	-1.1911	1E-5
5.067714E+2	21.9907	21.9908	-0.0828	1E-5
4.904344E+2	22.9878	22.9876	0.1982	1E-5
4.752620E+2	23.9849	23.9835	1.4122	1E-5
4.610532E+2	24.9877	24.9836	4.1361	1E-5
4.478032E+2	25.9852	25.9806	4.5678	1E-5
4.353777E+2	26.9831	26.9775	5.6349	1E-5
4.236906E+2	27.9798	27.9746	5.2495	1E-5
4.126380E+2	28.9789	28.9752	3.7470	1E-5
4.032449E+2	29.8725	29.8731	-0.6332	1E-5
3.543034E+2	35.3996	35.4006	-0.9798	1E-5
3.222325E+2	40.0088	40.0153	-6.5007	1E-5
2.636241E+2	51.5620	51.5775	-15.4914	1E-5
2.309040E+2	60.7470	60.7548	-7.8173	1E-5
2.046213E+2	70.3718	70.3689	2.8729	1E-5
1.842743E+2	79.7931	79.7812	11.8980	1E-4
1.695028E+2	88.0942	88.0805	13.7420	1E-4
1.555822E+2	97.3919	97.3807	11.1940	1E-4
1.435721E+2	106.8819	106.8759	6.0185	1E-4
1.329639E+2	116.6908	116.6972	-6.3901	1E-4
1.236010E+2	126.7524	126.7628	-10.3928	1E-4
1.158080E+2	136.3601	136.3728	-12.6915	1E-4
1.083509E+2	146.8338	146.8520	-18.2086	1E-4
1.033039E+2	154.7839	154.7978	-13.9468	1E-4
9.646482E+1	166.8859	166.8925	-6.5817	1E-4
9.476941E+1	170.1653	170.1627	2.5614	1E-4
8.913921E+1	181.9469	181.9307	16.2257	1E-4
8.482248E+1	192.0615	192.0404	21.0584	1E-4
8.232059E+1	198.4291	198.4039	25.1728	1E-4
7.881691E+1	208.0489	208.0277	21.2205	1E-4
7.633549E+1	215.4125	215.4084	4.0801	1E-4
7.268734E+1	227.2222	227.2353	-13.1114	1E-4
7.006838E+1	236.5165	236.5410	-24.4862	1E-4
6.680515E+1	249.2041	249.2402	-36.0631	1E-4
6.179473E+1	271.5814	271.6022	-20.8051	1E-4
6.054570E+1	277.8232	277.8189	4.3145	1E-4
5.840356E+1	289.2278	289.1924	35.3692	1E-4
5.812143E+1	290.7956	290.7637	31.8766	1E-4
5.480189E+1	310.7447	310.7712	-26.4800	1E-4
