Thermometre :	CX_LS_X107574
Environment :	VA
Date :	25/02/2016
Function :	 logT = Sum ( Ai / logR^i )
Coefficients :	
A0=	1.212447015653280E+3
A1=	-19.125828169967644E+3
A2=	124.283929216647710E+3
A3=	-412.009077109286970E+3
A4=	628.442370149024880E+3
A5=	170.972842678776100E+3
A6=	-2.421116511406719E+6
A7=	4.205579291736659E+6
A8=	-3.292955842092548E+6
A9=	1.023621177531627E+6
Rmes(Ohm)	Tmes(K)	Tfit(K)	dT(mK)	Courant(A)
9.871696E+2	9.9280	9.9314	-3.4318	1E-5
9.138538E+2	10.9344	10.9309	3.4843	1E-5
8.536766E+2	11.9268	11.9229	3.8947	1E-5
8.023293E+2	12.9242	12.9228	1.3517	1E-5
7.585614E+2	13.9116	13.9117	-0.1377	1E-5
7.201787E+2	14.9021	14.9031	-0.9820	1E-5
6.829553E+2	15.9930	15.9960	-2.9738	1E-5
6.525517E+2	16.9987	17.0012	-2.5278	1E-5
6.253544E+2	17.9962	17.9999	-3.7231	1E-5
6.008687E+2	18.9882	18.9908	-2.6336	1E-5
5.783777E+2	19.9851	19.9878	-2.7421	1E-5
5.577305E+2	20.9842	20.9855	-1.2614	1E-5
5.385696E+2	21.9899	21.9902	-0.2620	1E-5
5.209861E+2	22.9865	22.9865	-0.0123	1E-5
5.046707E+2	23.9825	23.9815	1.0123	1E-5
4.893560E+2	24.9869	24.9835	3.4178	1E-5
4.751229E+2	25.9836	25.9796	4.0231	1E-5
4.617756E+2	26.9807	26.9758	4.8958	1E-5
4.492282E+2	27.9768	27.9721	4.6817	1E-5
4.373401E+2	28.9768	28.9742	2.5915	1E-5
4.272346E+2	29.8794	29.8741	5.2554	1E-5
3.748645E+2	35.3868	35.3882	-1.3671	1E-5
3.404852E+2	39.9982	40.0061	-7.9002	1E-5
2.778340E+2	51.5523	51.5679	-15.5957	1E-5
2.429588E+2	60.7315	60.7381	-6.6285	1E-5
2.149706E+2	70.3544	70.3516	2.7817	1E-5
1.933997E+2	79.7411	79.7327	8.4399	1E-4
1.777003E+2	88.0486	88.0334	15.2259	1E-4
1.629098E+2	97.3575	97.3445	13.0429	1E-4
1.501828E+2	106.8411	106.8369	4.1571	1E-4
1.389497E+2	116.6524	116.6578	-5.4307	1E-4
1.290430E+2	126.7170	126.7244	-7.4487	1E-4
1.208137E+2	136.3118	136.3236	-11.8306	1E-4
1.129225E+2	146.8015	146.8216	-20.0797	1E-4
1.075967E+2	154.7490	154.7653	-16.2814	1E-4
1.003796E+2	166.8559	166.8653	-9.3512	1E-4
9.859083E+1	170.1409	170.1381	2.7884	1E-4
9.266458E+1	181.9092	181.8926	16.6333	1E-4
8.811292E+1	192.0360	192.0154	20.6281	1E-4
8.547815E+1	198.4117	198.3830	28.7133	1E-4
8.178033E+1	208.0621	208.0404	21.6886	1E-4
7.918233E+1	215.3983	215.3917	6.5894	1E-4
7.534487E+1	227.2205	227.2322	-11.6668	1E-4
7.258306E+1	236.5499	236.5795	-29.5562	1E-4
6.916378E+1	249.2238	249.2620	-38.1890	1E-4
6.391449E+1	271.5848	271.6037	-18.9198	1E-4
6.260650E+1	277.8214	277.8144	6.9790	1E-4
6.034098E+1	289.3318	289.2973	34.5470	1E-4
6.005181E+1	290.8658	290.8354	30.3541	1E-4
5.657155E+1	310.8521	310.8784	-26.2603	1E-4
