Thermometre :	CX_LS_X106582
Environment :	VA
Date :	14/10/2015
Function :	 logT = Sum ( Ai / logR^i )
Coefficients :	
A0=	881.509867587383840E+0
A1=	-14.619791033321429E+3
A2=	100.811333697888780E+3
A3=	-363.475527077602920E+3
A4=	665.734807160648980E+3
A5=	-253.166756195770610E+3
A6=	-1.435116621585662E+6
A7=	3.061752927817175E+6
A8=	-2.614803702004348E+6
A9=	861.772091498025580E+3
Rmes(Ohm)	Tmes(K)	Tfit(K)	dT(mK)	Courant(A)
1.414689E+3	9.9309	9.9340	-3.1160	1E-5
1.298550E+3	10.9373	10.9349	2.4226	1E-5
1.204404E+3	11.9294	11.9252	4.2458	1E-5
1.125060E+3	12.9213	12.9187	2.6190	1E-5
1.057062E+3	13.9140	13.9140	0.0181	1E-5
9.980950E+2	14.9063	14.9080	-1.7140	1E-5
9.416300E+2	15.9942	15.9970	-2.8408	1E-5
8.955480E+2	17.0001	17.0038	-3.7417	1E-5
8.545999E+2	17.9990	18.0028	-3.8466	1E-5
8.176966E+2	18.9968	19.0003	-3.5285	1E-5
7.841818E+2	19.9952	19.9975	-2.3345	1E-5
7.535521E+2	20.9935	20.9952	-1.7071	1E-5
7.254727E+2	21.9910	21.9915	-0.4840	1E-5
6.995755E+2	22.9886	22.9880	0.6250	1E-5
6.756138E+2	23.9874	23.9840	3.4132	1E-5
6.532621E+2	24.9887	24.9842	4.4551	1E-5
6.324963E+2	25.9878	25.9816	6.2297	1E-5
6.131016E+2	26.9840	26.9782	5.7881	1E-5
5.949303E+2	27.9807	27.9746	6.0635	1E-5
4.399326E+2	39.9924	39.9974	-5.0256	1E-5
4.384824E+2	40.1463	40.1514	-5.0605	1E-5
3.494434E+2	52.0771	52.0908	-13.6924	1E-5
3.013290E+2	61.4960	61.5039	-7.9118	1E-5
2.636219E+2	71.2857	71.2808	4.9333	1E-5
2.350232E+2	80.7887	80.7716	17.0774	1E-4
2.148485E+2	88.9790	88.9640	15.0069	1E-4
1.943794E+2	98.9793	98.9738	5.4741	1E-4
1.780041E+2	108.5822	108.5876	-5.4172	1E-4
1.634335E+2	118.6915	118.6986	-7.1499	1E-4
1.517714E+2	128.1174	128.1279	-10.4749	1E-4
1.401287E+2	139.0221	139.0318	-9.7389	1E-4
1.303352E+2	149.6280	149.6402	-12.1508	1E-4
1.235767E+2	157.8908	157.8983	-7.5431	1E-4
1.150620E+2	169.6381	169.6316	6.4873	1E-4
1.122095E+2	173.9596	173.9488	10.7971	1E-4
1.045241E+2	186.7360	186.7301	5.9488	1E-4
9.937707E+1	196.3959	196.3848	11.0536	1E-4
9.610518E+1	203.0676	203.0611	6.5305	1E-4
9.173258E+1	212.7477	212.7356	12.1366	1E-4
8.844777E+1	220.6577	220.6450	12.6974	1E-4
8.347470E+1	233.8265	233.8386	-12.1161	1E-4
8.025832E+1	243.2543	243.2742	-19.9101	1E-4
7.618866E+1	256.3778	256.4063	-28.4594	1E-4
7.214866E+1	270.9788	270.9915	-12.6606	1E-4
6.974585E+1	280.5419	280.5275	14.3727	1E-4
6.732165E+1	290.9351	290.9105	24.6116	1E-4
6.513858E+1	301.0492	301.0193	29.9091	1E-4
6.315696E+1	310.8956	310.9279	-32.3060	1E-4
