Thermometre :	CX_LS_X105606
Environment :	VA
Date :	25/02/2016
Function :	 logT = Sum ( Ai / logR^i )
Coefficients :	
A0=	290.087997221136050E+0
A1=	-3.233766163504727E+3
A2=	2.479786350276288E+3
A3=	138.629481532531760E+3
A4=	-1.009868580388616E+6
A5=	3.542573918439629E+6
A6=	-7.271654470335632E+6
A7=	8.926951685420403E+6
A8=	-6.100706893106692E+6
A9=	1.792276919577679E+6
Rmes(Ohm)	Tmes(K)	Tfit(K)	dT(mK)	Courant(A)
1.937860E+3	9.9283	9.9313	-2.9708	1E-5
1.762516E+3	10.9345	10.9318	2.7100	1E-5
1.619960E+3	11.9401	11.9357	4.3820	1E-5
1.503462E+3	12.9225	12.9218	0.7463	1E-5
1.404123E+3	13.9116	13.9117	-0.0773	1E-5
1.318244E+3	14.9022	14.9044	-2.1960	1E-5
1.236327E+3	15.9949	15.9960	-1.0910	1E-5
1.170153E+3	16.9992	17.0021	-2.8568	1E-5
1.111874E+3	17.9942	17.9974	-3.2188	1E-5
1.059584E+3	18.9891	18.9923	-3.2471	1E-5
1.012283E+3	19.9861	19.9884	-2.2685	1E-5
9.692037E+2	20.9861	20.9866	-0.4690	1E-5
9.296026E+2	21.9912	21.9915	-0.2646	1E-5
8.935469E+2	22.9887	22.9887	-0.0423	1E-5
8.603397E+2	23.9866	23.9854	1.2079	1E-5
8.295425E+2	24.9882	24.9847	3.4984	1E-5
8.010049E+2	25.9864	25.9825	3.9278	1E-5
7.744427E+2	26.9849	26.9800	4.8852	1E-5
7.496409E+2	27.9822	27.9777	4.5380	1E-5
7.263686E+2	28.9805	28.9778	2.6753	1E-5
7.069532E+2	29.8672	29.8641	3.0712	1E-5
6.059820E+2	35.4092	35.4117	-2.4754	1E-5
5.418775E+2	40.0168	40.0231	-6.2566	1E-5
4.283718E+2	51.5692	51.5836	-14.4175	1E-5
3.671587E+2	60.7587	60.7663	-7.5904	1E-5
3.192189E+2	70.3848	70.3830	1.8473	1E-5
2.828188E+2	79.8321	79.8182	13.8629	1E-4
2.569184E+2	88.1284	88.1161	12.2773	1E-4
2.328895E+2	97.4177	97.4081	9.5976	1E-4
2.124376E+2	106.9125	106.9031	9.3876	1E-4
1.946122E+2	116.7195	116.7259	-6.3730	1E-4
1.790764E+2	126.7791	126.7933	-14.1859	1E-4
1.662819E+2	136.3963	136.4135	-17.1989	1E-4
1.542036E+2	146.8583	146.8723	-14.0122	1E-4
1.460819E+2	154.8103	154.8218	-11.5450	1E-4
1.351828E+2	166.9084	166.9121	-3.7139	1E-4
1.324994E+2	170.1836	170.1801	3.5394	1E-4
1.236278E+2	181.9751	181.9558	19.2714	1E-4
1.168868E+2	192.0807	192.0633	17.3817	1E-4
1.130038E+2	198.4421	198.4224	19.7435	1E-4
1.076042E+2	208.0389	208.0199	19.0011	1E-4
1.037802E+2	215.4232	215.4190	4.1898	1E-4
9.820871E+1	227.2235	227.2353	-11.8441	1E-4
9.423978E+1	236.4916	236.5143	-22.6995	1E-4
8.930438E+1	249.1893	249.2234	-34.0704	1E-4
8.179179E+1	271.5788	271.5974	-18.5991	1E-4
7.993067E+1	277.8245	277.8189	5.5981	1E-4
7.677202E+1	289.1489	289.1193	29.6218	1E-4
7.634866E+1	290.7428	290.7117	31.0884	1E-4
7.145922E+1	310.6641	310.6885	-24.3811	1E-4
