Thermometre :	CX_LS_X106791
Environment :	VA
Date :	14/10/2015
Function :	 logT = Sum ( Ai / logR^i )
Coefficients :	
A0=	-427.008766984077060E+0
A1=	17.325255516742291E+3
A2=	-229.005255101139800E+3
A3=	1.553485734659412E+6
A4=	-6.305994166320755E+6
A5=	16.290994737161569E+6
A6=	-27.148139445968814E+6
A7=	28.367787963628650E+6
A8=	-16.953381466498155E+6
A9=	4.430710949157670E+6
Rmes(Ohm)	Tmes(K)	Tfit(K)	dT(mK)	Courant(A)
8.338780E+2	9.9308	9.9345	-3.7154	1E-5
7.766146E+2	10.9373	10.9337	3.5889	1E-5
7.293698E+2	11.9295	11.9254	4.1489	1E-5
6.890952E+2	12.9213	12.9189	2.3933	1E-5
6.541814E+2	13.9140	13.9140	0.0134	1E-5
6.235711E+2	14.9063	14.9080	-1.7003	1E-5
5.939433E+2	15.9949	15.9974	-2.5450	1E-5
5.695396E+2	17.0003	17.0041	-3.8458	1E-5
5.476503E+2	17.9993	18.0038	-4.4637	1E-5
5.277766E+2	18.9969	19.0011	-4.2352	1E-5
5.095875E+2	19.9953	19.9983	-2.9528	1E-5
4.928436E+2	20.9937	20.9957	-2.0333	1E-5
4.773813E+2	21.9915	21.9921	-0.6488	1E-5
4.630273E+2	22.9893	22.9887	0.6445	1E-5
4.496585E+2	23.9886	23.9849	3.7072	1E-5
4.371251E+2	24.9891	24.9843	4.8394	1E-5
4.254025E+2	25.9885	25.9815	7.0082	1E-5
4.143864E+2	26.9852	26.9785	6.6637	1E-5
4.040113E+2	27.9822	27.9751	7.0635	1E-5
3.129122E+2	40.0093	40.0146	-5.3097	1E-5
3.120353E+2	40.1648	40.1689	-4.0885	1E-5
2.572380E+2	52.1021	52.1195	-17.4393	1E-5
2.267337E+2	61.5104	61.5196	-9.1509	1E-5
2.022180E+2	71.3028	71.2996	3.1885	1E-5
1.832376E+2	80.8134	80.7970	16.4040	1E-4
1.696247E+2	89.0153	88.9947	20.5896	1E-4
1.556164E+2	99.0089	98.9980	10.8954	1E-4
1.442244E+2	108.6138	108.6147	-0.9405	1E-4
1.339413E+2	118.7251	118.7307	-5.6101	1E-4
1.255839E+2	128.1698	128.1872	-17.4159	1E-4
1.171779E+2	139.0501	139.0671	-16.9877	1E-4
1.100061E+2	149.6520	149.6691	-17.1205	1E-4
1.050010E+2	157.9192	157.9319	-12.7259	1E-4
9.864176E+1	169.6624	169.6569	5.5124	1E-4
9.649225E+1	173.9851	173.9773	7.7978	1E-4
9.067276E+1	186.7539	186.7376	16.2965	1E-4
8.673360E+1	196.4145	196.3918	22.6593	1E-4
8.421325E+1	203.0858	203.0702	15.5821	1E-4
8.082739E+1	212.7585	212.7425	15.9794	1E-4
7.825339E+1	220.7105	220.6983	12.1780	1E-4
7.436410E+1	233.8326	233.8528	-20.1580	1E-4
7.182721E+1	243.2386	243.2697	-31.0872	1E-4
6.858621E+1	256.3704	256.4112	-40.8345	1E-4
6.534998E+1	270.9621	270.9746	-12.4900	1E-4
6.341346E+1	280.5102	280.4927	17.5103	1E-4
6.144976E+1	290.9028	290.8630	39.8449	1E-4
5.966989E+1	301.0309	300.9924	38.4829	1E-4
5.805810E+1	310.8365	310.8820	-45.5208	1E-4
