Thermometre :	CX_LS_X106584
Environment :	VA
Date :	14/10/2015
Function :	 logT = Sum ( Ai / logR^i )
Coefficients :	
A0=	821.241615217022510E+0
A1=	-13.390377643271144E+3
A2=	89.608249887029902E+3
A3=	-303.591655899922600E+3
A4=	458.825541290970810E+3
A5=	225.850279792582940E+3
A6=	-2.177653745601188E+6
A7=	3.804272025897056E+6
A8=	-3.049015974166027E+6
A9=	974.796941241883320E+3
Rmes(Ohm)	Tmes(K)	Tfit(K)	dT(mK)	Courant(A)
1.430992E+3	9.9309	9.9344	-3.4855	1E-5
1.313232E+3	10.9373	10.9340	3.3079	1E-5
1.217566E+3	11.9294	11.9254	3.9659	1E-5
1.137085E+3	12.9213	12.9187	2.5690	1E-5
1.068102E+3	13.9140	13.9142	-0.2278	1E-5
1.008314E+3	14.9063	14.9082	-1.8773	1E-5
9.510813E+2	15.9943	15.9970	-2.7313	1E-5
9.043687E+2	17.0001	17.0040	-3.9132	1E-5
8.628820E+2	17.9990	18.0029	-3.9046	1E-5
8.254997E+2	18.9969	19.0003	-3.4048	1E-5
7.915516E+2	19.9952	19.9976	-2.3789	1E-5
7.605363E+2	20.9935	20.9952	-1.6754	1E-5
7.321061E+2	21.9911	21.9915	-0.3594	1E-5
7.058887E+2	22.9887	22.9880	0.6957	1E-5
6.816359E+2	23.9875	23.9840	3.4769	1E-5
6.590180E+2	24.9887	24.9842	4.4944	1E-5
6.380065E+2	25.9879	25.9815	6.3750	1E-5
6.183832E+2	26.9841	26.9783	5.8394	1E-5
6.000011E+2	27.9808	27.9747	6.0638	1E-5
4.433033E+2	39.9941	39.9992	-5.1099	1E-5
4.418371E+2	40.1482	40.1533	-5.0830	1E-5
3.519278E+2	52.0796	52.0937	-14.1014	1E-5
3.033854E+2	61.4975	61.5057	-8.1762	1E-5
2.653535E+2	71.2874	71.2830	4.3696	1E-5
2.365204E+2	80.7912	80.7743	16.9343	1E-4
2.161877E+2	88.9828	88.9666	16.1884	1E-4
1.955691E+2	98.9823	98.9738	8.4924	1E-4
1.790701E+2	108.5852	108.5902	-5.0405	1E-4
1.643947E+2	118.6950	118.7036	-8.6133	1E-4
1.526515E+2	128.1228	128.1356	-12.7755	1E-4
1.409356E+2	139.0250	139.0384	-13.3653	1E-4
1.310845E+2	149.6305	149.6437	-13.1816	1E-4
1.242880E+2	157.8937	157.8989	-5.1710	1E-4
1.157239E+2	169.6404	169.6322	8.2122	1E-4
1.128552E+2	173.9622	173.9496	12.6496	1E-4
1.051282E+2	186.7379	186.7297	8.2263	1E-4
9.995308E+1	196.3978	196.3856	12.1627	1E-4
9.666349E+1	203.0694	203.0631	6.2998	1E-4
9.226821E+1	212.7488	212.7381	10.6556	1E-4
8.896453E+1	220.6628	220.6533	9.5075	1E-4
8.396933E+1	233.8270	233.8406	-13.6175	1E-4
8.073817E+1	243.2527	243.2738	-21.0903	1E-4
7.664981E+1	256.3770	256.4044	-27.3639	1E-4
7.259316E+1	270.9771	270.9853	-8.1851	1E-4
7.017985E+1	280.5389	280.5250	13.9286	1E-4
6.774739E+1	290.9317	290.9073	24.3743	1E-4
6.555743E+1	301.0473	301.0202	27.1321	1E-4
6.357367E+1	310.8895	310.9206	-31.1029	1E-4
