Thermometre :	CX_LS_X107579
Environment :	VA
Date :	25/02/2016
Function :	 logT = Sum ( Ai / logR^i )
Coefficients :	
A0=	946.180178038077660E+0
A1=	-14.173342082774167E+3
A2=	82.838791594619310E+3
A3=	-206.501816467786670E+3
A4=	-38.268587894573342E+3
A5=	1.639201436747156E+6
A6=	-4.613576149549895E+6
A7=	6.341353007587048E+6
A8=	-4.520760374136868E+6
A9=	1.339921470802942E+6
Rmes(Ohm)	Tmes(K)	Tfit(K)	dT(mK)	Courant(A)
1.066376E+3	9.9281	9.9313	-3.2390	1E-5
9.855649E+2	10.9344	10.9312	3.2150	1E-5
9.193015E+2	11.9278	11.9238	3.9787	1E-5
8.629285E+2	12.9241	12.9227	1.4081	1E-5
8.148458E+2	13.9116	13.9124	-0.8025	1E-5
7.728040E+2	14.9021	14.9029	-0.7793	1E-5
7.320321E+2	15.9932	15.9962	-2.9779	1E-5
6.987920E+2	16.9987	17.0012	-2.5012	1E-5
6.690954E+2	17.9960	17.9995	-3.4937	1E-5
6.423726E+2	18.9883	18.9906	-2.2878	1E-5
6.178549E+2	19.9852	19.9877	-2.4874	1E-5
5.953719E+2	20.9844	20.9853	-0.9028	1E-5
5.745242E+2	21.9900	21.9902	-0.1623	1E-5
5.554125E+2	22.9867	22.9866	0.1288	1E-5
5.376917E+2	23.9829	23.9818	1.1121	1E-5
5.210791E+2	24.9870	24.9836	3.4039	1E-5
5.056458E+2	25.9838	25.9799	3.8664	1E-5
4.911879E+2	26.9810	26.9762	4.8318	1E-5
4.776035E+2	27.9772	27.9727	4.4647	1E-5
4.647471E+2	28.9771	28.9747	2.3896	1E-5
4.538246E+2	29.8785	29.8746	3.8574	1E-5
3.973214E+2	35.3886	35.3900	-1.4320	1E-5
3.603526E+2	39.9996	40.0074	-7.7749	1E-5
2.932167E+2	51.5537	51.5685	-14.8411	1E-5
2.559842E+2	60.7337	60.7393	-5.6357	1E-5
2.261841E+2	70.3568	70.3530	3.7776	1E-5
2.032537E+2	79.7483	79.7400	8.3042	1E-4
1.866041E+2	88.0549	88.0409	14.0156	1E-4
1.709427E+2	97.3623	97.3509	11.4131	1E-4
1.574825E+2	106.8467	106.8435	3.2229	1E-4
1.456179E+2	116.6577	116.6635	-5.7609	1E-4
1.351662E+2	126.7218	126.7288	-7.0251	1E-4
1.264904E+2	136.3184	136.3296	-11.1582	1E-4
1.181824E+2	146.8058	146.8244	-18.5709	1E-4
1.125775E+2	154.7539	154.7685	-14.5969	1E-4
1.049882E+2	166.8601	166.8683	-8.2475	1E-4
1.031082E+2	170.1442	170.1411	3.1006	1E-4
9.688081E+1	181.9144	181.8985	15.9490	1E-4
9.210238E+1	192.0395	192.0203	19.1626	1E-4
8.933737E+1	198.4142	198.3876	26.6231	1E-4
8.545995E+1	208.0603	208.0398	20.5169	1E-4
8.273391E+1	215.4003	215.3948	5.4766	1E-4
7.871201E+1	227.2207	227.2324	-11.6640	1E-4
7.582012E+1	236.5453	236.5725	-27.2239	1E-4
7.223812E+1	249.2211	249.2569	-35.7669	1E-4
6.674266E+1	271.5844	271.6035	-19.1329	1E-4
6.537417E+1	277.8216	277.8154	6.2468	1E-4
6.300777E+1	289.3180	289.2836	34.3529	1E-4
6.270441E+1	290.8560	290.8267	29.2636	1E-4
5.906625E+1	310.8373	310.8629	-25.6326	1E-4
