Thermometre :	CX_LS_X105677
Environment :	VA
Date :	25/02/2016
Function :	 logT = Sum ( Ai / logR^i )
Coefficients :	
A0=	305.396703432586090E+0
A1=	-3.107629068794093E+3
A2=	-2.708563061658651E+3
A3=	187.406410506476590E+3
A4=	-1.246906737036116E+6
A5=	4.235900327355412E+6
A6=	-8.543993660799211E+6
A7=	10.367689781374868E+6
A8=	-7.024220784868444E+6
A9=	2.049318517364327E+6
Rmes(Ohm)	Tmes(K)	Tfit(K)	dT(mK)	Courant(A)
1.813673E+3	9.9283	9.9315	-3.1520	1E-5
1.653815E+3	10.9346	10.9316	2.9952	1E-5
1.523214E+3	11.9422	11.9378	4.4109	1E-5
1.416765E+3	12.9223	12.9212	1.1044	1E-5
1.325441E+3	13.9116	13.9123	-0.6841	1E-5
1.246520E+3	14.9022	14.9039	-1.6644	1E-5
1.170895E+3	15.9951	15.9971	-2.0280	1E-5
1.109856E+3	16.9993	17.0021	-2.7766	1E-5
1.055964E+3	17.9939	17.9971	-3.2324	1E-5
1.007534E+3	18.9892	18.9918	-2.5741	1E-5
9.636173E+2	19.9862	19.9885	-2.3348	1E-5
9.235694E+2	20.9864	20.9874	-1.0455	1E-5
8.867553E+2	21.9915	21.9917	-0.2378	1E-5
8.531706E+2	22.9891	22.9891	-0.0306	1E-5
8.222039E+2	23.9873	23.9859	1.4369	1E-5
7.934596E+2	24.9884	24.9850	3.4063	1E-5
7.667887E+2	25.9868	25.9828	3.9639	1E-5
7.419332E+2	26.9855	26.9807	4.8314	1E-5
7.187072E+2	27.9830	27.9784	4.6063	1E-5
6.968963E+2	28.9810	28.9785	2.5288	1E-5
6.787595E+2	29.8653	29.8609	4.3647	1E-5
5.836666E+2	35.4127	35.4157	-3.0429	1E-5
5.231644E+2	40.0197	40.0263	-6.6409	1E-5
4.155226E+2	51.5719	51.5868	-14.9430	1E-5
3.571697E+2	60.7629	60.7710	-8.0934	1E-5
3.113163E+2	70.3896	70.3875	2.1373	1E-5
2.763691E+2	79.8464	79.8302	16.2121	1E-4
2.514612E+2	88.1409	88.1286	12.2922	1E-4
2.283083E+2	97.4271	97.4188	8.2947	1E-4
2.085549E+2	106.9237	106.9145	9.2208	1E-4
1.913066E+2	116.7301	116.7366	-6.4899	1E-4
1.762443E+2	126.7889	126.8043	-15.4289	1E-4
1.638165E+2	136.4096	136.4269	-17.2786	1E-4
1.520734E+2	146.8671	146.8817	-14.5590	1E-4
1.441648E+2	154.8200	154.8298	-9.8454	1E-4
1.335379E+2	166.9167	166.9184	-1.6518	1E-4
1.309180E+2	170.1904	170.1872	3.1589	1E-4
1.222499E+2	181.9857	181.9663	19.3646	1E-4
1.156604E+2	192.0877	192.0709	16.7692	1E-4
1.118619E+2	198.4468	198.4281	18.7279	1E-4
1.065791E+2	208.0353	208.0175	17.8099	1E-4
1.028290E+2	215.4270	215.4230	4.0459	1E-4
9.736820E+1	227.2240	227.2350	-11.0318	1E-4
9.347744E+1	236.4826	236.5050	-22.3967	1E-4
8.862967E+1	249.1838	249.2173	-33.4908	1E-4
8.124269E+1	271.5779	271.5964	-18.4813	1E-4
7.941102E+1	277.8250	277.8197	5.3307	1E-4
7.630936E+1	289.1201	289.0917	28.3946	1E-4
7.589053E+1	290.7234	290.6914	31.9590	1E-4
7.107638E+1	310.6351	310.6593	-24.2500	1E-4
