Thermometre :	CX_LS_X107606
Environment :	VA
Date :	25/02/2016
Function :	 logT = Sum ( Ai / logR^i )
Coefficients :	
A0=	1.128146658101419E+3
A1=	-17.417939398957442E+3
A2=	109.183160478673630E+3
A3=	-335.462848832114540E+3
A4=	383.167666454419900E+3
A5=	686.203055871626480E+3
A6=	-3.130337985581097E+6
A7=	4.821857342959401E+6
A8=	-3.599198301516188E+6
A9=	1.089752401089591E+6
Rmes(Ohm)	Tmes(K)	Tfit(K)	dT(mK)	Courant(A)
9.696472E+2	9.9282	9.9316	-3.3726	1E-5
8.977314E+2	10.9345	10.9315	3.0169	1E-5
8.384065E+2	11.9340	11.9290	4.9615	1E-5
7.883860E+2	12.9233	12.9224	0.9399	1E-5
7.454121E+2	13.9116	13.9118	-0.2275	1E-5
7.077248E+2	14.9021	14.9038	-1.6556	1E-5
6.711932E+2	15.9940	15.9967	-2.7358	1E-5
6.413549E+2	16.9990	17.0020	-3.0169	1E-5
6.147359E+2	17.9951	17.9979	-2.7501	1E-5
5.906073E+2	18.9887	18.9927	-3.9923	1E-5
5.685848E+2	19.9856	19.9874	-1.7810	1E-5
5.482849E+2	20.9853	20.9867	-1.4176	1E-5
5.294931E+2	21.9906	21.9907	-0.0866	1E-5
5.122287E+2	22.9877	22.9874	0.2714	1E-5
4.962021E+2	23.9848	23.9833	1.5052	1E-5
4.811988E+2	24.9876	24.9835	4.1307	1E-5
4.672174E+2	25.9851	25.9804	4.6871	1E-5
4.541091E+2	26.9830	26.9773	5.6832	1E-5
4.417845E+2	27.9797	27.9745	5.1905	1E-5
4.301358E+2	28.9788	28.9750	3.7655	1E-5
4.202324E+2	29.8727	29.8736	-0.9192	1E-5
3.687312E+2	35.3991	35.4000	-0.8966	1E-5
3.350258E+2	40.0084	40.0151	-6.6578	1E-5
2.735536E+2	51.5616	51.5771	-15.4857	1E-5
2.393091E+2	60.7464	60.7539	-7.5320	1E-5
2.118440E+2	70.3710	70.3680	3.0206	1E-5
1.906145E+2	79.7910	79.7787	12.3023	1E-4
1.752176E+2	88.0923	88.0779	14.3606	1E-4
1.607202E+2	97.3905	97.3800	10.5208	1E-4
1.482272E+2	106.8802	106.8756	4.5901	1E-4
1.372038E+2	116.6892	116.6966	-7.3689	1E-4
1.274837E+2	126.7509	126.7610	-10.0875	1E-4
1.193994E+2	136.3581	136.3702	-12.1367	1E-4
1.116685E+2	146.8325	146.8497	-17.1587	1E-4
1.064397E+2	154.7826	154.7953	-12.7464	1E-4
9.935814E+1	166.8847	166.8908	-6.0699	1E-4
9.760311E+1	170.1643	170.1619	2.4180	1E-4
9.177885E+1	181.9453	181.9299	15.3521	1E-4
8.731583E+1	192.0604	192.0402	20.1868	1E-4
8.473057E+1	198.4284	198.4033	25.1274	1E-4
8.111075E+1	208.0494	208.0287	20.7264	1E-4
7.854924E+1	215.4119	215.4076	4.3417	1E-4
7.478385E+1	227.2221	227.2353	-13.2116	1E-4
7.208179E+1	236.5178	236.5428	-25.0388	1E-4
6.871792E+1	249.2049	249.2402	-35.2734	1E-4
6.355647E+1	271.5816	271.6015	-19.9065	1E-4
6.227055E+1	277.8231	277.8183	4.7810	1E-4
6.006494E+1	289.2321	289.1974	34.6836	1E-4
5.977493E+1	290.7985	290.7673	31.2055	1E-4
5.636060E+1	310.7490	310.7753	-26.2590	1E-4
