Thermometre :	CX_LS_X47727
Environment :	VA
Date :	05/07/2007
Function :	 logT = Sum ( Ai / logR^i )
Coefficients :	
A0=	-85.574671958065025E+0
A1=	3.524018616593068E+3
A2=	-49.215178286196227E+3
A3=	354.902631517663370E+3
A4=	-1.530991674330066E+6
A5=	4.197628414915997E+6
A6=	-7.412464933811869E+6
A7=	8.194644881109475E+6
A8=	-5.173321002538025E+6
A9=	1.426078650503158E+6
Rmes(Ohm)	Tmes(K)	Tfit(K)	dT(mK)	Courant(A)
6.479144E+1	311.1640	311.1969	-32.9290	1E-4
6.685601E+1	301.0151	300.9816	33.5479	1E-4
6.821089E+1	294.6885	294.6886	-0.1471	1E-4
6.904760E+1	290.9730	290.9487	24.2842	1E-4
7.131427E+1	281.3375	281.3259	11.6148	1E-4
7.398896E+1	270.8235	270.8241	-0.5832	1E-4
7.402595E+1	270.6606	270.6848	-24.1518	1E-4
7.846642E+1	254.9822	254.9992	-17.0370	1E-4
8.280777E+1	241.4005	241.4140	-13.5432	1E-4
8.599023E+1	232.3774	232.3834	-6.0364	1E-4
8.956260E+1	223.0519	223.0548	-2.8868	1E-4
9.237969E+1	216.2321	216.2334	-1.2737	1E-4
9.737003E+1	205.1828	205.1607	22.1407	1E-4
9.746542E+1	204.9724	204.9605	11.9146	1E-4
1.055774E+2	189.3122	189.3003	11.9117	1E-4
1.155402E+2	173.1319	173.1311	0.8262	1E-4
1.240403E+2	161.3952	161.3986	-3.3815	1E-4
1.341226E+2	149.3884	149.3972	-8.7937	1E-4
1.440924E+2	139.1519	139.1576	-5.7091	1E-4
1.551745E+2	129.2825	129.2908	-8.2611	1E-4
1.706081E+2	117.6378	117.6424	-4.5538	1E-4
1.831337E+2	109.6041	109.6041	0.0242	1E-4
2.024291E+2	99.1430	99.1362	6.8010	1E-4
2.238475E+2	89.6099	89.6043	5.5531	1E-4
2.535120E+2	79.0474	79.0436	3.7516	1E-4
2.838252E+2	70.5316	70.5252	6.4117	1E-5
3.266467E+2	61.1845	61.1850	-0.4930	1E-5
3.793667E+2	52.5742	52.5840	-9.8148	1E-5
4.880914E+2	40.7107	40.7164	-5.6755	1E-5
5.523597E+2	35.8999	35.8991	0.8056	1E-5
6.596061E+2	29.9560	29.9547	1.3258	1E-5
6.808601E+2	29.0008	29.0000	0.7945	1E-5
7.050623E+2	27.9841	27.9836	0.5464	1E-5
7.307614E+2	26.9802	26.9786	1.5678	1E-5
7.584201E+2	25.9762	25.9740	2.1762	1E-5
7.881774E+2	24.9743	24.9730	1.3432	1E-5
8.203611E+2	23.9753	23.9733	2.0406	1E-5
8.551730E+2	22.9802	22.9781	2.0646	1E-5
8.929652E+2	21.9862	21.9874	-1.2427	1E-5
9.344397E+2	20.9943	20.9946	-0.2979	1E-5
9.801150E+2	20.0014	20.0010	0.4027	1E-5
1.030629E+3	19.0071	19.0078	-0.6863	1E-5
1.086779E+3	18.0150	18.0158	-0.8082	1E-5
1.149586E+3	17.0214	17.0254	-4.0462	1E-5
1.220736E+3	16.0307	16.0319	-1.2410	1E-5
1.310292E+3	14.9403	14.9422	-1.8762	1E-5
1.404844E+3	13.9506	13.9505	0.0638	1E-5
1.515432E+3	12.9587	12.9572	1.5098	1E-5
1.646447E+3	11.9676	11.9646	2.9850	1E-5
1.804394E+3	10.9742	10.9739	0.3488	1E-5
2.002915E+3	9.9671	9.9684	-1.3008	1E-5
