Thermometre :	CX_LS_X107121
Environment :	VA
Date :	14/10/2015
Function :	 logT = Sum ( Ai / logR^i )
Coefficients :	
A0=	995.978840874504730E+0
A1=	-13.623997108800004E+3
A2=	66.019437358711395E+3
A3=	-67.351356571731463E+3
A4=	-641.618870876845670E+3
A5=	3.216672296056257E+6
A6=	-7.197186913035485E+6
A7=	8.944071704409553E+6
A8=	-5.998527320747889E+6
A9=	1.702244769555425E+6
Rmes(Ohm)	Tmes(K)	Tfit(K)	dT(mK)	Courant(A)
8.999726E+2	9.9308	9.9342	-3.4338	1E-5
8.357026E+2	10.9373	10.9339	3.4098	1E-5
7.827312E+2	11.9295	11.9259	3.5686	1E-5
7.376634E+2	12.9213	12.9190	2.3142	1E-5
6.986271E+2	13.9140	13.9138	0.1549	1E-5
6.644320E+2	14.9064	14.9080	-1.6132	1E-5
6.313704E+2	15.9952	15.9980	-2.7552	1E-5
6.042085E+2	17.0004	17.0039	-3.5085	1E-5
5.798635E+2	17.9995	18.0033	-3.8325	1E-5
5.577862E+2	18.9970	19.0007	-3.6784	1E-5
5.376039E+2	19.9954	19.9980	-2.5645	1E-5
5.190509E+2	20.9938	20.9956	-1.7989	1E-5
5.019391E+2	21.9918	21.9923	-0.5052	1E-5
4.860767E+2	22.9897	22.9890	0.6708	1E-5
4.713194E+2	23.9893	23.9857	3.5606	1E-5
4.575103E+2	24.9894	24.9850	4.3537	1E-5
4.446071E+2	25.9890	25.9826	6.4255	1E-5
4.324967E+2	26.9858	26.9800	5.7999	1E-5
4.211052E+2	27.9831	27.9771	6.0405	1E-5
3.218138E+2	40.0189	40.0251	-6.1609	1E-5
3.208691E+2	40.1754	40.1789	-3.4961	1E-5
2.620032E+2	52.1163	52.1316	-15.3152	1E-5
2.295915E+2	61.5189	61.5253	-6.4148	1E-5
2.037116E+2	71.3130	71.3087	4.2614	1E-5
1.838000E+2	80.8278	80.8133	14.4579	1E-4
1.695962E+2	89.0361	89.0175	18.6178	1E-4
1.550631E+2	99.0261	99.0201	5.9783	1E-4
1.433010E+2	108.6323	108.6356	-3.3135	1E-4
1.327313E+2	118.7443	118.7492	-4.9336	1E-4
1.241660E+2	128.1999	128.2151	-15.2276	1E-4
1.156058E+2	139.0664	139.0789	-12.5080	1E-4
1.083201E+2	149.6658	149.6800	-14.1989	1E-4
1.032506E+2	157.9357	157.9441	-8.4157	1E-4
9.683054E+1	169.6766	169.6691	7.5185	1E-4
9.466391E+1	173.9999	173.9929	6.9790	1E-4
8.881649E+1	186.7641	186.7518	12.2787	1E-4
8.486833E+1	196.4255	196.4074	18.1061	1E-4
8.234722E+1	203.0962	203.0859	10.3467	1E-4
7.896787E+1	212.7647	212.7533	11.4373	1E-4
7.639543E+1	220.7415	220.7305	10.9552	1E-4
7.253617E+1	233.8361	233.8537	-17.5838	1E-4
7.002264E+1	243.2295	243.2538	-24.2585	1E-4
6.681198E+1	256.3661	256.3996	-33.4585	1E-4
6.361658E+1	270.9526	270.9617	-9.1253	1E-4
6.170944E+1	280.4916	280.4768	14.7660	1E-4
5.977721E+1	290.8840	290.8516	32.4401	1E-4
5.802711E+1	301.0205	300.9894	31.1129	1E-4
5.644982E+1	310.8026	310.8401	-37.4742	1E-4
