Thermometre :	CX_LS_X107580
Environment :	VA
Date :	25/02/2016
Function :	 logT = Sum ( Ai / logR^i )
Coefficients :	
A0=	1.680024612704211E+3
A1=	-28.177252070360882E+3
A2=	202.426447646828950E+3
A3=	-807.080252204659050E+3
A4=	1.917626195286836E+6
A5=	-2.644277339843928E+6
A6=	1.691387486013971E+6
A7=	332.605821628207110E+3
A8=	-1.160674497176336E+6
A9=	501.111294990093620E+3
Rmes(Ohm)	Tmes(K)	Tfit(K)	dT(mK)	Courant(A)
9.256279E+2	9.9281	9.9316	-3.5370	1E-5
8.583619E+2	10.9344	10.9310	3.4250	1E-5
8.029822E+2	11.9281	11.9237	4.4014	1E-5
7.557176E+2	12.9241	12.9226	1.4856	1E-5
7.153001E+2	13.9116	13.9119	-0.2508	1E-5
6.797877E+2	14.9021	14.9039	-1.8153	1E-5
6.453468E+2	15.9932	15.9959	-2.7479	1E-5
6.171464E+2	16.9987	17.0014	-2.7261	1E-5
5.919160E+2	17.9960	17.9992	-3.2278	1E-5
5.691314E+2	18.9883	18.9912	-2.8618	1E-5
5.481973E+2	19.9852	19.9885	-3.2713	1E-5
5.289863E+2	20.9844	20.9850	-0.6110	1E-5
5.111096E+2	21.9900	21.9904	-0.4092	1E-5
4.947039E+2	22.9867	22.9866	0.0519	1E-5
4.794647E+2	23.9830	23.9818	1.2081	1E-5
4.651573E+2	24.9870	24.9834	3.6200	1E-5
4.518438E+2	25.9839	25.9796	4.3234	1E-5
4.393503E+2	26.9811	26.9759	5.1862	1E-5
4.275942E+2	27.9773	27.9727	4.6318	1E-5
4.164589E+2	28.9772	28.9743	2.8959	1E-5
4.069827E+2	29.8782	29.8743	3.8740	1E-5
3.577853E+2	35.3891	35.3901	-0.9865	1E-5
3.254259E+2	40.0001	40.0079	-7.8117	1E-5
2.662900E+2	51.5541	51.5702	-16.1080	1E-5
2.332716E+2	60.7343	60.7418	-7.5250	1E-5
2.067246E+2	70.3575	70.3545	2.9742	1E-5
1.862176E+2	79.7504	79.7400	10.4198	1E-4
1.712810E+2	88.0567	88.0396	17.1409	1E-4
1.571908E+2	97.3637	97.3501	13.5590	1E-4
1.450475E+2	106.8484	106.8467	1.7119	1E-4
1.343234E+2	116.6592	116.6683	-9.1138	1E-4
1.248602E+2	126.7233	126.7327	-9.4308	1E-4
1.169917E+2	136.3204	136.3319	-11.5101	1E-4
1.094449E+2	146.8072	146.8247	-17.5458	1E-4
1.043460E+2	154.7553	154.7684	-13.1349	1E-4
9.743237E+1	166.8613	166.8683	-7.0040	1E-4
9.571799E+1	170.1452	170.1412	3.9823	1E-4
9.003414E+1	181.9160	181.8994	16.6278	1E-4
8.566756E+1	192.0405	192.0215	19.0172	1E-4
8.313857E+1	198.4149	198.3889	25.9816	1E-4
7.958938E+1	208.0598	208.0409	18.9034	1E-4
7.709194E+1	215.4008	215.3959	4.9125	1E-4
7.340421E+1	227.2208	227.2327	-11.9366	1E-4
7.075045E+1	236.5439	236.5713	-27.3545	1E-4
6.746009E+1	249.2203	249.2553	-34.9893	1E-4
6.240632E+1	271.5842	271.6012	-17.0464	1E-4
6.114635E+1	277.8217	277.8150	6.7232	1E-4
5.896775E+1	289.3137	289.2806	33.1196	1E-4
5.868796E+1	290.8532	290.8255	27.6705	1E-4
5.533484E+1	310.8329	310.8578	-24.9049	1E-4
