Thermometre :	CX_LS_X106576
Environment :	VA
Date :	14/10/2015
Function :	 logT = Sum ( Ai / logR^i )
Coefficients :	
A0=	1.049288454252645E+3
A1=	-17.260010304809923E+3
A2=	118.598904732624990E+3
A3=	-430.419058579288660E+3
A4=	819.703234149439140E+3
A5=	-476.559043997447010E+3
A6=	-1.227880152696385E+6
A7=	2.933410747533335E+6
A8=	-2.555923686208847E+6
A9=	844.332456560340240E+3
Rmes(Ohm)	Tmes(K)	Tfit(K)	dT(mK)	Courant(A)
1.216718E+3	9.9309	9.9343	-3.3803	1E-5
1.120905E+3	10.9373	10.9341	3.2017	1E-5
1.042765E+3	11.9294	11.9256	3.7893	1E-5
9.767749E+2	12.9214	12.9192	2.2431	1E-5
9.200826E+2	13.9140	13.9138	0.2284	1E-5
8.707527E+2	14.9063	14.9076	-1.2955	1E-5
8.233462E+2	15.9941	15.9973	-3.2474	1E-5
7.846021E+2	17.0001	17.0037	-3.5795	1E-5
7.500730E+2	17.9990	18.0029	-3.8604	1E-5
7.188894E+2	18.9968	19.0005	-3.7015	1E-5
6.905211E+2	19.9952	19.9976	-2.3632	1E-5
6.645409E+2	20.9935	20.9953	-1.7797	1E-5
6.406852E+2	21.9910	21.9914	-0.4373	1E-5
6.186436E+2	22.9885	22.9879	0.5769	1E-5
5.982199E+2	23.9872	23.9838	3.4399	1E-5
5.791328E+2	24.9886	24.9842	4.4195	1E-5
5.613808E+2	25.9877	25.9813	6.4163	1E-5
5.447735E+2	26.9838	26.9780	5.8491	1E-5
5.291949E+2	27.9805	27.9743	6.2251	1E-5
3.954265E+2	39.9897	39.9946	-4.9449	1E-5
3.941655E+2	40.1434	40.1487	-5.2935	1E-5
3.164784E+2	52.0732	52.0866	-13.3782	1E-5
2.741868E+2	61.4936	61.5021	-8.4521	1E-5
2.408869E+2	71.2829	71.2787	4.2085	1E-5
2.155247E+2	80.7846	80.7680	16.5852	1E-4
1.975722E+2	88.9731	88.9580	15.1318	1E-4
1.792983E+2	98.9745	98.9652	9.2965	1E-4
1.646261E+2	108.5770	108.5815	-4.4703	1E-4
1.515360E+2	118.6861	118.6942	-8.0523	1E-4
1.410362E+2	128.1089	128.1216	-12.6803	1E-4
1.305219E+2	139.0176	139.0314	-13.7563	1E-4
1.216644E+2	149.6241	149.6375	-13.3960	1E-4
1.155417E+2	157.8864	157.8925	-6.1216	1E-4
1.078113E+2	169.6341	169.6263	7.7928	1E-4
1.052192E+2	173.9557	173.9419	13.8176	1E-4
9.822297E+1	186.7331	186.7248	8.2668	1E-4
9.353010E+1	196.3928	196.3808	12.0312	1E-4
9.054335E+1	203.0646	203.0585	6.1170	1E-4
8.654774E+1	212.7460	212.7351	10.8772	1E-4
8.354586E+1	220.6491	220.6384	10.6955	1E-4
7.898966E+1	233.8255	233.8394	-13.8993	1E-4
7.603997E+1	243.2567	243.2790	-22.2582	1E-4
7.230686E+1	256.3790	256.4064	-27.4194	1E-4
6.859637E+1	270.9815	270.9899	-8.4379	1E-4
6.638647E+1	280.5471	280.5328	14.2648	1E-4
6.415797E+1	290.9400	290.9161	23.8822	1E-4
6.215155E+1	301.0522	301.0229	29.2990	1E-4
6.032914E+1	310.9052	310.9377	-32.4642	1E-4
