Thermometre :	CX_LS_X105609
Environment :	VA
Date :	25/02/2016
Function :	 logT = Sum ( Ai / logR^i )
Coefficients :	
A0=	361.161065378124650E+0
A1=	-3.527149095048800E+3
A2=	-4.420265724749710E+3
A3=	219.425353768455100E+3
A4=	-1.410846251310372E+6
A5=	4.677724340822339E+6
A6=	-9.233942368338715E+6
A7=	10.979064858971139E+6
A8=	-7.293322451276242E+6
A9=	2.087205870815447E+6
Rmes(Ohm)	Tmes(K)	Tfit(K)	dT(mK)	Courant(A)
1.479044E+3	9.9283	9.9315	-3.1720	1E-5
1.356020E+3	10.9345	10.9316	2.8608	1E-5
1.255077E+3	11.9403	11.9358	4.5207	1E-5
1.172007E+3	12.9225	12.9213	1.1596	1E-5
1.100592E+3	13.9116	13.9121	-0.4709	1E-5
1.038615E+3	14.9022	14.9031	-0.9005	1E-5
9.788685E+2	15.9949	15.9978	-2.9347	1E-5
9.305527E+2	16.9992	17.0022	-3.0363	1E-5
8.877370E+2	17.9942	17.9970	-2.7705	1E-5
8.490840E+2	18.9891	18.9927	-3.6452	1E-5
8.140137E+2	19.9861	19.9882	-2.1353	1E-5
7.818994E+2	20.9861	20.9872	-1.0834	1E-5
7.522996E+2	21.9913	21.9915	-0.2330	1E-5
7.252360E+2	22.9888	22.9887	0.0945	1E-5
7.002200E+2	23.9867	23.9853	1.3796	1E-5
6.769412E+2	24.9883	24.9846	3.7221	1E-5
6.553012E+2	25.9864	25.9823	4.1395	1E-5
6.350948E+2	26.9850	26.9798	5.1876	1E-5
6.161715E+2	27.9823	27.9775	4.8219	1E-5
5.983642E+2	28.9805	28.9777	2.8143	1E-5
5.834803E+2	29.8670	29.8634	3.6202	1E-5
5.054068E+2	35.4096	35.4122	-2.5988	1E-5
4.552849E+2	40.0171	40.0238	-6.7413	1E-5
3.653076E+2	51.5695	51.5851	-15.6123	1E-5
3.160435E+2	60.7592	60.7675	-8.3330	1E-5
2.770448E+2	70.3853	70.3828	2.4677	1E-5
2.471506E+2	79.8337	79.8185	15.2301	1E-4
2.257174E+2	88.1297	88.1167	12.9864	1E-4
2.057007E+2	97.4187	97.4087	9.9529	1E-4
1.885516E+2	106.9137	106.9047	8.9717	1E-4
1.735155E+2	116.7207	116.7276	-6.8965	1E-4
1.603356E+2	126.7802	126.7952	-14.9819	1E-4
1.494251E+2	136.3978	136.4152	-17.4262	1E-4
1.390744E+2	146.8593	146.8748	-15.4858	1E-4
1.320882E+2	154.8114	154.8218	-10.4439	1E-4
1.226710E+2	166.9094	166.9132	-3.8472	1E-4
1.203460E+2	170.1844	170.1809	3.4909	1E-4
1.126389E+2	181.9763	181.9564	19.9190	1E-4
1.067619E+2	192.0815	192.0635	18.0391	1E-4
1.033682E+2	198.4426	198.4222	20.4150	1E-4
9.863872E+1	208.0385	208.0188	19.6738	1E-4
9.528099E+1	215.4236	215.4189	4.6998	1E-4
9.037748E+1	227.2236	227.2362	-12.6102	1E-4
8.687585E+1	236.4906	236.5153	-24.7276	1E-4
8.251087E+1	249.1887	249.2242	-35.5411	1E-4
7.584305E+1	271.5787	271.5935	-14.8315	1E-4
7.418468E+1	277.8246	277.8200	4.6340	1E-4
7.136890E+1	289.1457	289.1163	29.3593	1E-4
7.099070E+1	290.7406	290.7098	30.8175	1E-4
6.661945E+1	310.6608	310.6853	-24.5367	1E-4
