Thermometre :	CX_LS_X107569
Environment :	VA
Date :	25/02/2016
Function :	 logT = Sum ( Ai / logR^i )
Coefficients :	
A0=	1.311153462220135E+3
A1=	-20.697465622127245E+3
A2=	135.524286572736280E+3
A3=	-460.461323535553530E+3
A4=	770.758896690671100E+3
A5=	-130.242157300758310E+3
A6=	-1.960817731378219E+6
A7=	3.724019257448311E+6
A8=	-2.987714764297142E+6
A9=	936.269271033625000E+3
Rmes(Ohm)	Tmes(K)	Tfit(K)	dT(mK)	Courant(A)
9.136961E+2	9.9280	9.9315	-3.4506	1E-5
8.468432E+2	10.9344	10.9307	3.6609	1E-5
7.919198E+2	11.9258	11.9222	3.5819	1E-5
7.449507E+2	12.9243	12.9228	1.5000	1E-5
7.048915E+2	13.9116	13.9120	-0.3736	1E-5
6.697570E+2	14.9020	14.9028	-0.7939	1E-5
6.356356E+2	15.9929	15.9956	-2.7364	1E-5
6.077323E+2	16.9986	17.0012	-2.6272	1E-5
5.827673E+2	17.9963	17.9997	-3.4001	1E-5
5.602589E+2	18.9882	18.9912	-2.9554	1E-5
5.395984E+2	19.9850	19.9874	-2.3753	1E-5
5.205886E+2	20.9841	20.9859	-1.7666	1E-5
5.029599E+2	21.9897	21.9902	-0.4707	1E-5
4.867695E+2	22.9863	22.9864	-0.0690	1E-5
4.717399E+2	23.9822	23.9811	1.0708	1E-5
4.576181E+2	24.9868	24.9834	3.3739	1E-5
4.444914E+2	25.9834	25.9795	3.8500	1E-5
4.321803E+2	26.9803	26.9755	4.8232	1E-5
4.205979E+2	27.9763	27.9719	4.4429	1E-5
4.096190E+2	28.9766	28.9741	2.5083	1E-5
4.002872E+2	29.8804	29.8738	6.6481	1E-5
3.518718E+2	35.3851	35.3863	-1.2490	1E-5
3.200260E+2	39.9968	40.0052	-8.3618	1E-5
2.618965E+2	51.5510	51.5673	-16.3414	1E-5
2.294772E+2	60.7294	60.7364	-7.0094	1E-5
2.034175E+2	70.3521	70.3496	2.5183	1E-5
1.833165E+2	79.7339	79.7247	9.2395	1E-4
1.686613E+2	88.0423	88.0247	17.5859	1E-4
1.548376E+2	97.3528	97.3374	15.4075	1E-4
1.429300E+2	106.8354	106.8330	2.4076	1E-4
1.324128E+2	116.6473	116.6561	-8.8130	1E-4
1.231335E+2	126.7123	126.7219	-9.6371	1E-4
1.154219E+2	136.3054	136.3184	-13.0044	1E-4
1.080207E+2	146.7971	146.8166	-19.4751	1E-4
1.030242E+2	154.7442	154.7591	-14.8813	1E-4
9.624916E+1	166.8518	166.8594	-7.5820	1E-4
9.456925E+1	170.1376	170.1327	4.9466	1E-4
8.900339E+1	181.9042	181.8855	18.6764	1E-4
8.472453E+1	192.0325	192.0120	20.5167	1E-4
8.224720E+1	198.4095	198.3811	28.4057	1E-4
7.876827E+1	208.0639	208.0437	20.2408	1E-4
7.632587E+1	215.3964	215.3909	5.5011	1E-4
7.271418E+1	227.2202	227.2337	-13.4958	1E-4
7.011316E+1	236.5544	236.5858	-31.3725	1E-4
6.689465E+1	249.2266	249.2643	-37.6501	1E-4
6.195130E+1	271.5853	271.6018	-16.5188	1E-4
6.071908E+1	277.8211	277.8129	8.2268	1E-4
5.858204E+1	289.3463	289.3114	34.9473	1E-4
5.831023E+1	290.8755	290.8462	29.2936	1E-4
5.503021E+1	310.8669	310.8939	-26.9776	1E-4
