Thermometre :	CX_LS_X106575
Environment :	VA
Date :	14/10/2015
Function :	 logT = Sum ( Ai / logR^i )
Coefficients :	
A0=	988.073761286644410E+0
A1=	-16.025644018472018E+3
A2=	107.495236178659690E+3
A3=	-371.964591772122480E+3
A4=	621.393472645157020E+3
A5=	-27.361779649266722E+3
A6=	-1.906586505554060E+6
A7=	3.592406021725698E+6
A8=	-2.928717673497306E+6
A9=	937.875158132583830E+3
Rmes(Ohm)	Tmes(K)	Tfit(K)	dT(mK)	Courant(A)
1.231722E+3	9.9309	9.9344	-3.4521	1E-5
1.134553E+3	10.9373	10.9342	3.1295	1E-5
1.055354E+3	11.9294	11.9252	4.2324	1E-5
9.884086E+2	12.9214	12.9192	2.1703	1E-5
9.309353E+2	13.9140	13.9138	0.1569	1E-5
8.809189E+2	14.9063	14.9079	-1.6412	1E-5
8.328916E+2	15.9941	15.9972	-3.1271	1E-5
7.936218E+2	17.0001	17.0037	-3.5895	1E-5
7.586339E+2	17.9989	18.0028	-3.9251	1E-5
7.270361E+2	18.9968	19.0005	-3.7048	1E-5
6.982943E+2	19.9952	19.9976	-2.3738	1E-5
6.719786E+2	20.9935	20.9951	-1.6164	1E-5
6.478094E+2	21.9909	21.9914	-0.4900	1E-5
6.254819E+2	22.9885	22.9879	0.6081	1E-5
6.047955E+2	23.9871	23.9837	3.4052	1E-5
5.854636E+2	24.9886	24.9841	4.5049	1E-5
5.674835E+2	25.9876	25.9813	6.3491	1E-5
5.506647E+2	26.9838	26.9779	5.8958	1E-5
5.348884E+2	27.9804	27.9742	6.1903	1E-5
3.994517E+2	39.9889	39.9936	-4.7347	1E-5
3.981747E+2	40.1424	40.1477	-5.3247	1E-5
3.195328E+2	52.0719	52.0852	-13.2996	1E-5
2.767243E+2	61.4930	61.5013	-8.3244	1E-5
2.430245E+2	71.2820	71.2780	4.0292	1E-5
2.173594E+2	80.7834	80.7678	15.6004	1E-4
1.991957E+2	88.9713	88.9574	13.9381	1E-4
1.807084E+2	98.9730	98.9635	9.5188	1E-4
1.658659E+2	108.5754	108.5777	-2.2616	1E-4
1.526198E+2	118.6844	118.6905	-6.1105	1E-4
1.419936E+2	128.1062	128.1183	-12.1118	1E-4
1.313485E+2	139.0164	139.0316	-15.2033	1E-4
1.223830E+2	149.6229	149.6369	-14.0404	1E-4
1.161838E+2	157.8849	157.8925	-7.6055	1E-4
1.083562E+2	169.6329	169.6263	6.6341	1E-4
1.057314E+2	173.9544	173.9415	12.8599	1E-4
9.864611E+1	186.7322	186.7239	8.3387	1E-4
9.389317E+1	196.3918	196.3791	12.7435	1E-4
9.086804E+1	203.0638	203.0562	7.5816	1E-4
8.682038E+1	212.7455	212.7333	12.1700	1E-4
8.378016E+1	220.6464	220.6346	11.8491	1E-4
7.916302E+1	233.8252	233.8389	-13.6950	1E-4
7.617370E+1	243.2575	243.2803	-22.7782	1E-4
7.239012E+1	256.3794	256.4087	-29.3169	1E-4
6.862850E+1	270.9823	270.9920	-9.6721	1E-4
6.638749E+1	280.5488	280.5341	14.6657	1E-4
6.412695E+1	290.9417	290.9171	24.6334	1E-4
6.209155E+1	301.0531	301.0228	30.2756	1E-4
6.024217E+1	310.9082	310.9413	-33.0978	1E-4
