Thermometre :	CX_LS_X107598
Environment :	VA
Date :	25/02/2016
Function :	 logT = Sum ( Ai / logR^i )
Coefficients :	
A0=	1.137113077964263E+3
A1=	-17.913088502579307E+3
A2=	116.106053935757950E+3
A3=	-382.824385210633690E+3
A4=	573.719407777782760E+3
A5=	202.463212023524980E+3
A6=	-2.342275611064818E+6
A7=	4.019720461566640E+6
A8=	-3.133514789021863E+6
A9=	971.793591579447850E+3
Rmes(Ohm)	Tmes(K)	Tfit(K)	dT(mK)	Courant(A)
9.990489E+2	9.9281	9.9314	-3.3401	1E-5
9.242154E+2	10.9345	10.9315	2.9679	1E-5
8.625810E+2	11.9333	11.9285	4.8326	1E-5
8.105910E+2	12.9234	12.9223	1.0813	1E-5
7.659883E+2	13.9116	13.9116	-0.0071	1E-5
7.268839E+2	14.9021	14.9037	-1.5814	1E-5
6.889988E+2	15.9939	15.9969	-3.0292	1E-5
6.580838E+2	16.9989	17.0021	-3.1996	1E-5
6.305013E+2	17.9952	17.9985	-3.2529	1E-5
6.055468E+2	18.9887	18.9924	-3.6771	1E-5
5.827553E+2	19.9856	19.9872	-1.6199	1E-5
5.617680E+2	20.9852	20.9861	-0.9045	1E-5
5.423279E+2	21.9905	21.9907	-0.1505	1E-5
5.244871E+2	22.9876	22.9873	0.3032	1E-5
5.079304E+2	23.9846	23.9831	1.4718	1E-5
4.924339E+2	24.9876	24.9834	4.1760	1E-5
4.780019E+2	25.9850	25.9802	4.8005	1E-5
4.644716E+2	26.9827	26.9772	5.4808	1E-5
4.517587E+2	27.9794	27.9742	5.2332	1E-5
4.397417E+2	28.9786	28.9748	3.7530	1E-5
4.295167E+2	29.8734	29.8746	-1.1948	1E-5
3.764737E+2	35.3979	35.3988	-0.9426	1E-5
3.417836E+2	40.0074	40.0141	-6.6974	1E-5
2.786081E+2	51.5607	51.5764	-15.7178	1E-5
2.434749E+2	60.7449	60.7522	-7.2905	1E-5
2.153271E+2	70.3694	70.3655	3.8590	1E-5
1.935953E+2	79.7859	79.7736	12.3056	1E-4
1.778416E+2	88.0879	88.0732	14.6764	1E-4
1.630173E+2	97.3872	97.3772	10.0371	1E-4
1.502534E+2	106.8763	106.8739	2.4101	1E-4
1.390013E+2	116.6855	116.6937	-8.1831	1E-4
1.290861E+2	126.7475	126.7565	-8.9721	1E-4
1.208442E+2	136.3534	136.3640	-10.5862	1E-4
1.129637E+2	146.8293	146.8455	-16.1644	1E-4
1.076369E+2	154.7792	154.7914	-12.2392	1E-4
1.004251E+2	166.8818	166.8880	-6.2081	1E-4
9.863835E+1	170.1619	170.1593	2.5515	1E-4
9.271080E+1	181.9419	181.9271	14.8096	1E-4
8.816924E+1	192.0580	192.0390	18.9530	1E-4
8.553921E+1	198.4267	198.4029	23.7632	1E-4
8.185718E+1	208.0506	208.0305	20.0964	1E-4
7.925395E+1	215.4105	215.4061	4.3604	1E-4
7.542641E+1	227.2220	227.2341	-12.0635	1E-4
7.267948E+1	236.5211	236.5455	-24.4217	1E-4
6.926276E+1	249.2068	249.2411	-34.3150	1E-4
6.402243E+1	271.5819	271.6006	-18.7291	1E-4
6.271711E+1	277.8229	277.8181	4.8382	1E-4
6.047673E+1	289.2422	289.2084	33.8369	1E-4
6.018289E+1	290.8050	290.7760	28.9622	1E-4
5.671864E+1	310.7594	310.7845	-25.0868	1E-4
