Thermometre :	CX_LS_X107591
Environment :	VA
Date :	25/02/2016
Function :	 logT = Sum ( Ai / logR^i )
Coefficients :	
A0=	1.411877248740847E+3
A1=	-23.161589151278378E+3
A2=	160.747788771729190E+3
A3=	-604.956891638548230E+3
A4=	1.286817997598889E+6
A5=	-1.329858548138259E+6
A6=	-137.749436404475860E+3
A7=	1.972081764790539E+6
A8=	-2.019541881953397E+6
A9=	701.455904365039550E+3
Rmes(Ohm)	Tmes(K)	Tfit(K)	dT(mK)	Courant(A)
9.596587E+2	9.9281	9.9316	-3.4759	1E-5
8.887186E+2	10.9344	10.9313	3.1214	1E-5
8.302861E+2	11.9315	11.9264	5.1243	1E-5
7.807372E+2	12.9236	12.9224	1.1901	1E-5
7.382566E+2	13.9116	13.9123	-0.6958	1E-5
7.010126E+2	14.9021	14.9039	-1.8260	1E-5
6.648858E+2	15.9937	15.9968	-3.1406	1E-5
6.353761E+2	16.9989	17.0017	-2.8139	1E-5
6.090145E+2	17.9955	17.9982	-2.6715	1E-5
5.851470E+2	18.9885	18.9922	-3.6719	1E-5
5.633447E+2	19.9854	19.9865	-1.1219	1E-5
5.432387E+2	20.9849	20.9857	-0.8048	1E-5
5.246006E+2	21.9904	21.9907	-0.3243	1E-5
5.074952E+2	22.9873	22.9873	-0.0077	1E-5
4.916142E+2	23.9840	23.9829	1.0527	1E-5
4.767360E+2	24.9874	24.9835	3.9096	1E-5
4.628772E+2	25.9846	25.9802	4.3704	1E-5
4.498820E+2	26.9822	26.9769	5.2715	1E-5
4.376628E+2	27.9787	27.9739	4.8355	1E-5
4.261044E+2	28.9781	28.9748	3.2567	1E-5
4.162658E+2	29.8751	29.8749	0.1971	1E-5
3.652234E+2	35.3949	35.3955	-0.5914	1E-5
3.317674E+2	40.0049	40.0114	-6.4623	1E-5
2.707637E+2	51.5584	51.5732	-14.8467	1E-5
2.367933E+2	60.7412	60.7481	-6.9410	1E-5
2.095459E+2	70.3652	70.3631	2.0839	1E-5
1.885112E+2	79.7735	79.7641	9.3874	1E-4
1.732416E+2	88.0772	88.0629	14.2556	1E-4
1.588630E+2	97.3789	97.3667	12.1935	1E-4
1.464786E+2	106.8665	106.8605	5.9649	1E-4
1.355493E+2	116.6765	116.6822	-5.6677	1E-4
1.259123E+2	126.7392	126.7484	-9.1975	1E-4
1.179016E+2	136.3421	136.3550	-12.8790	1E-4
1.102353E+2	146.8217	146.8409	-19.1797	1E-4
1.050549E+2	154.7708	154.7855	-14.6794	1E-4
9.803837E+1	166.8746	166.8818	-7.2110	1E-4
9.629964E+1	170.1561	170.1532	2.8748	1E-4
9.053306E+1	181.9329	181.9161	16.7889	1E-4
8.611088E+1	192.0519	192.0313	20.5681	1E-4
8.355026E+1	198.4226	198.3961	26.4961	1E-4
7.996211E+1	208.0538	208.0335	20.3375	1E-4
7.743002E+1	215.4072	215.4021	5.1280	1E-4
7.370169E+1	227.2216	227.2341	-12.5117	1E-4
7.102357E+1	236.5290	236.5562	-27.1506	1E-4
6.769667E+1	249.2116	249.2478	-36.1918	1E-4
6.259186E+1	271.5827	271.6012	-18.5241	1E-4
6.132007E+1	277.8225	277.8160	6.4900	1E-4
5.913089E+1	289.2668	289.2339	32.8542	1E-4
5.884633E+1	290.8219	290.7914	30.5470	1E-4
5.546735E+1	310.7852	310.8109	-25.7256	1E-4
