Thermometre :	CX_LS_X107490
Environment :	VA
Date :	14/10/2015
Function :	 logT = Sum ( Ai / logR^i )
Coefficients :	
A0=	1.091289121548713E+3
A1=	-17.450144794863336E+3
A2=	115.409287863250910E+3
A3=	-393.587626797977430E+3
A4=	646.352180968385770E+3
A5=	-16.584339948290923E+3
A6=	-1.965975403060622E+6
A7=	3.641497004930561E+6
A8=	-2.927074638440478E+6
A9=	924.904715961236160E+3
Rmes(Ohm)	Tmes(K)	Tfit(K)	dT(mK)	Courant(A)
1.061668E+3	9.9307	9.9338	-3.1036	1E-5
9.806930E+2	10.9373	10.9345	2.7832	1E-5
9.144587E+2	11.9295	11.9258	3.7432	1E-5
8.583215E+2	12.9212	12.9192	2.0176	1E-5
8.099500E+2	13.9140	13.9138	0.2321	1E-5
7.677597E+2	14.9064	14.9075	-1.0654	1E-5
7.270592E+2	15.9955	15.9989	-3.3797	1E-5
6.938396E+2	17.0005	17.0034	-2.8844	1E-5
6.641104E+2	17.9996	18.0031	-3.5230	1E-5
6.372392E+2	18.9970	19.0006	-3.6366	1E-5
6.127499E+2	19.9955	19.9980	-2.4742	1E-5
5.902998E+2	20.9939	20.9957	-1.7925	1E-5
5.696492E+2	21.9920	21.9925	-0.4550	1E-5
5.505495E+2	22.9900	22.9895	0.4779	1E-5
5.328281E+2	23.9899	23.9863	3.5802	1E-5
5.162876E+2	24.9896	24.9855	4.1262	1E-5
5.008592E+2	25.9893	25.9833	5.9782	1E-5
4.864128E+2	26.9864	26.9809	5.5448	1E-5
4.728507E+2	27.9839	27.9781	5.7932	1E-5
3.558377E+2	40.0270	40.0331	-6.1177	1E-5
3.547338E+2	40.1842	40.1873	-3.1267	1E-5
2.865613E+2	52.1282	52.1426	-14.4368	1E-5
2.494584E+2	61.5258	61.5317	-5.9325	1E-5
2.200370E+2	71.3210	71.3169	4.0561	1E-5
1.975414E+2	80.8397	80.8263	13.4190	1E-4
1.815789E+2	89.0535	89.0345	19.0039	1E-4
1.653321E+2	99.0401	99.0368	3.2641	1E-4
1.522443E+2	108.6475	108.6516	-4.0522	1E-4
1.405340E+2	118.7603	118.7633	-2.9984	1E-4
1.310706E+2	128.2249	128.2385	-13.5916	1E-4
1.216670E+2	139.0798	139.0904	-10.6055	1E-4
1.136827E+2	149.6773	149.6915	-14.1877	1E-4
1.081423E+2	157.9491	157.9569	-7.8377	1E-4
1.011470E+2	169.6883	169.6809	7.4465	1E-4
9.878992E+1	174.0119	174.0066	5.2595	1E-4
9.244556E+1	186.7727	186.7623	10.4402	1E-4
8.817141E+1	196.4343	196.4174	16.9340	1E-4
8.544660E+1	203.1049	203.0956	9.3001	1E-4
8.180088E+1	212.7698	212.7598	10.0466	1E-4
7.902367E+1	220.7665	220.7533	13.1742	1E-4
7.487989E+1	233.8390	233.8549	-15.9126	1E-4
7.218415E+1	243.2221	243.2450	-22.8640	1E-4
6.874218E+1	256.3625	256.3940	-31.4745	1E-4
6.532493E+1	270.9446	270.9535	-8.9441	1E-4
6.328911E+1	280.4766	280.4642	12.3568	1E-4
6.122782E+1	290.8688	290.8384	30.4352	1E-4
5.936129E+1	301.0117	300.9814	30.2779	1E-4
5.768437E+1	310.7743	310.8096	-35.3086	1E-4
