Thermometre :	CX_LS_X104944
Environment :	VA
Date :	14/10/2015
Function :	 logT = Sum ( Ai / logR^i )
Coefficients :	
A0=	684.084961010546750E+0
A1=	-11.886521931695494E+3
A2=	86.514544581041598E+3
A3=	-335.265959934888170E+3
A4=	700.728127458742470E+3
A5=	-556.802282687475090E+3
A6=	-749.024560146545180E+3
A7=	2.282250332211589E+6
A8=	-2.168148738414496E+6
A9=	762.087736651395910E+3
Rmes(Ohm)	Tmes(K)	Tfit(K)	dT(mK)	Courant(A)
1.983798E+3	9.9310	9.9338	-2.8403	1E-5
1.805236E+3	10.9372	10.9347	2.4819	1E-5
1.661751E+3	11.9294	11.9262	3.2468	1E-5
1.542082E+3	12.9214	12.9190	2.3676	1E-5
1.440300E+3	13.9140	13.9137	0.3170	1E-5
1.352598E+3	14.9063	14.9076	-1.2846	1E-5
1.269197E+3	15.9935	15.9961	-2.6180	1E-5
1.201546E+3	16.9999	17.0025	-2.5795	1E-5
1.141674E+3	17.9987	18.0025	-3.8020	1E-5
1.088014E+3	18.9968	19.0006	-3.8179	1E-5
1.039550E+3	19.9950	19.9977	-2.6925	1E-5
9.954559E+2	20.9933	20.9952	-1.9013	1E-5
9.552079E+2	21.9905	21.9912	-0.6734	1E-5
9.182382E+2	22.9878	22.9873	0.5436	1E-5
8.841712E+2	23.9860	23.9825	3.4885	1E-5
8.524467E+2	24.9882	24.9840	4.2471	1E-5
8.231215E+2	25.9869	25.9809	6.0069	1E-5
7.958216E+2	26.9827	26.9772	5.5453	1E-5
7.703297E+2	27.9790	27.9729	6.0518	1E-5
5.563626E+2	39.9737	39.9783	-4.5635	1E-5
5.543884E+2	40.1260	40.1321	-6.1366	1E-5
4.344415E+2	52.0497	52.0594	-9.7411	1E-5
3.705185E+2	61.4798	61.4895	-9.6716	1E-5
3.211216E+2	71.2666	71.2631	3.4546	1E-5
2.840485E+2	80.7612	80.7445	16.7479	1E-4
2.581060E+2	88.9387	88.9268	11.9460	1E-4
2.319438E+2	98.9464	98.9364	10.0299	1E-4
2.111617E+2	108.5468	108.5519	-5.1114	1E-4
1.927955E+2	118.6543	118.6631	-8.7902	1E-4
1.782208E+2	128.0587	128.0669	-8.1667	1E-4
1.636719E+2	138.9903	139.0032	-12.8871	1E-4
1.515405E+2	149.6014	149.6117	-10.2560	1E-4
1.432091E+2	157.8594	157.8670	-7.5510	1E-4
1.327483E+2	169.6109	169.6072	3.6613	1E-4
1.292613E+2	173.9315	173.9198	11.7397	1E-4
1.198845E+2	186.7162	186.7025	13.7339	1E-4
1.136240E+2	196.3750	196.3672	7.8115	1E-4
1.096588E+2	203.0473	203.0440	3.3245	1E-4
1.043693E+2	212.7358	212.7260	9.7959	1E-4
1.004326E+2	220.5986	220.5866	11.9913	1E-4
9.442972E+1	233.8196	233.8312	-11.6406	1E-4
9.056470E+1	243.2717	243.2925	-20.8222	1E-4
8.570703E+1	256.3861	256.4100	-23.8905	1E-4
8.089229E+1	270.9973	271.0050	-7.6674	1E-4
7.803237E+1	280.5775	280.5637	13.8149	1E-4
7.515884E+1	290.9707	290.9532	17.5124	1E-4
7.258350E+1	301.0695	301.0420	27.4632	1E-4
7.023717E+1	310.9607	310.9889	-28.2295	1E-4
