Thermometre :	CX_LS_X105031
Environment :	VA
Date :	25/02/2016
Function :	 logT = Sum ( Ai / logR^i )
Coefficients :	
A0=	600.739578718774850E+0
A1=	-9.965751419971315E+3
A2=	66.771663445450380E+3
A3=	-216.795476671529120E+3
A4=	244.416277743419890E+3
A5=	611.045555411551380E+3
A6=	-2.732451522544472E+6
A7=	4.435805134654195E+6
A8=	-3.523763690969717E+6
A9=	1.138866837224563E+6
Rmes(Ohm)	Tmes(K)	Tfit(K)	dT(mK)	Courant(A)
2.042686E+3	9.9282	9.9315	-3.2612	1E-5
1.858980E+3	10.9345	10.9317	2.8346	1E-5
1.709754E+3	11.9390	11.9343	4.6883	1E-5
1.587401E+3	12.9227	12.9220	0.6882	1E-5
1.483300E+3	13.9116	13.9109	0.7114	1E-5
1.393160E+3	14.9022	14.9033	-1.1428	1E-5
1.306888E+3	15.9947	15.9976	-2.9202	1E-5
1.237456E+3	16.9992	17.0016	-2.3864	1E-5
1.176054E+3	17.9944	17.9981	-3.7223	1E-5
1.120994E+3	18.9890	18.9929	-3.9063	1E-5
1.071136E+3	19.9860	19.9890	-3.0241	1E-5
1.025678E+3	20.9860	20.9877	-1.6795	1E-5
9.839275E+2	21.9911	21.9914	-0.2558	1E-5
9.458493E+2	22.9886	22.9884	0.2404	1E-5
9.107545E+2	23.9863	23.9847	1.5658	1E-5
8.781741E+2	24.9881	24.9841	4.0039	1E-5
8.479710E+2	25.9861	25.9817	4.3882	1E-5
8.198427E+2	26.9846	26.9790	5.5621	1E-5
7.935612E+2	27.9817	27.9765	5.1714	1E-5
7.688829E+2	28.9802	28.9767	3.5258	1E-5
7.482373E+2	29.8682	29.8650	3.1751	1E-5
6.410107E+2	35.4074	35.4095	-2.0858	1E-5
5.727288E+2	40.0153	40.0221	-6.8236	1E-5
4.515829E+2	51.5679	51.5841	-16.2055	1E-5
3.861547E+2	60.7565	60.7653	-8.7538	1E-5
3.348885E+2	70.3824	70.3802	2.1503	1E-5
2.959852E+2	79.8249	79.8101	14.8079	1E-4
2.683035E+2	88.1223	88.1085	13.7568	1E-4
2.426422E+2	97.4129	97.4032	9.7210	1E-4
2.208326E+2	106.9069	106.8990	7.8893	1E-4
2.018534E+2	116.7145	116.7207	-6.1844	1E-4
1.853341E+2	126.7742	126.7880	-13.8297	1E-4
1.717527E+2	136.3899	136.4056	-15.6998	1E-4
1.589424E+2	146.8538	146.8680	-14.1978	1E-4
1.503443E+2	154.8055	154.8163	-10.8281	1E-4
1.388180E+2	166.9043	166.9090	-4.7454	1E-4
1.359826E+2	170.1803	170.1785	1.8097	1E-4
1.266244E+2	181.9699	181.9515	18.4309	1E-4
1.195213E+2	192.0772	192.0607	16.5490	1E-4
1.154351E+2	198.4397	198.4195	20.2141	1E-4
1.097560E+2	208.0408	208.0218	18.9888	1E-4
1.057429E+2	215.4212	215.4166	4.6485	1E-4
9.989880E+1	227.2233	227.2342	-10.8774	1E-4
9.573984E+1	236.4962	236.5172	-21.0166	1E-4
9.057755E+1	249.1920	249.2253	-33.3172	1E-4
8.273406E+1	271.5793	271.5988	-19.4626	1E-4
8.079376E+1	277.8243	277.8204	3.9228	1E-4
7.750027E+1	289.1633	289.1324	30.9009	1E-4
7.706017E+1	290.7521	290.7227	29.4131	1E-4
7.197481E+1	310.6789	310.7023	-23.4460	1E-4
