Thermometre :	CX_LS_X106643
Environment :	VA
Date :	14/10/2015
Function :	 logT = Sum ( Ai / logR^i )
Coefficients :	
A0=	782.864845293899180E+0
A1=	-12.323133708239022E+3
A2=	77.553253588337990E+3
A3=	-228.510890551506190E+3
A4=	169.775306091646780E+3
A5=	946.207791594317070E+3
A6=	-3.346900247481711E+6
A7=	5.001056875946880E+6
A8=	-3.751942732992896E+6
A9=	1.155672316444549E+6
Rmes(Ohm)	Tmes(K)	Tfit(K)	dT(mK)	Courant(A)
1.381862E+3	9.9308	9.9342	-3.3740	1E-5
1.269165E+3	10.9373	10.9341	3.2324	1E-5
1.177541E+3	11.9295	11.9258	3.7186	1E-5
1.100438E+3	12.9213	12.9189	2.4173	1E-5
1.034304E+3	13.9140	13.9141	-0.1443	1E-5
9.769379E+2	14.9063	14.9080	-1.7085	1E-5
9.219720E+2	15.9947	15.9971	-2.4138	1E-5
8.771196E+2	17.0002	17.0035	-3.2828	1E-5
8.372066E+2	17.9992	18.0032	-4.0074	1E-5
8.012587E+2	18.9969	19.0005	-3.6242	1E-5
7.685915E+2	19.9953	19.9979	-2.6061	1E-5
7.387374E+2	20.9937	20.9955	-1.7675	1E-5
7.113551E+2	21.9914	21.9919	-0.4971	1E-5
6.860937E+2	22.9891	22.9886	0.4965	1E-5
6.627142E+2	23.9882	23.9849	3.3143	1E-5
6.409184E+2	24.9890	24.9846	4.3960	1E-5
6.206515E+2	25.9883	25.9820	6.2638	1E-5
6.017149E+2	26.9848	26.9790	5.7808	1E-5
5.839711E+2	27.9818	27.9757	6.0856	1E-5
4.324270E+2	40.0039	40.0088	-4.8882	1E-5
4.310086E+2	40.1589	40.1628	-3.9086	1E-5
3.438803E+2	52.0941	52.1088	-14.6949	1E-5
2.968202E+2	61.5060	61.5135	-7.5178	1E-5
2.598650E+2	71.2974	71.2940	3.3900	1E-5
2.318150E+2	80.8056	80.7912	14.3721	1E-4
2.120234E+2	89.0038	88.9874	16.4381	1E-4
1.919552E+2	98.9996	98.9902	9.3755	1E-4
1.758771E+2	108.6037	108.6057	-2.0162	1E-4
1.615625E+2	118.7145	118.7198	-5.2810	1E-4
1.500820E+2	128.1533	128.1682	-14.8703	1E-4
1.386558E+2	139.0413	139.0564	-15.0812	1E-4
1.290297E+2	149.6444	149.6600	-15.6329	1E-4
1.223832E+2	157.9102	157.9164	-6.2278	1E-4
1.140084E+2	169.6548	169.6460	8.8392	1E-4
1.111997E+2	173.9771	173.9659	11.2184	1E-4
1.036407E+2	186.7482	186.7394	8.8393	1E-4
9.857440E+1	196.4087	196.3943	14.4234	1E-4
9.535309E+1	203.0800	203.0717	8.3150	1E-4
9.104966E+1	212.7551	212.7436	11.5024	1E-4
8.780358E+1	220.6937	220.6836	10.0637	1E-4
8.291940E+1	233.8306	233.8452	-14.5584	1E-4
7.975695E+1	243.2436	243.2651	-21.5452	1E-4
7.574648E+1	256.3727	256.4032	-30.4948	1E-4
7.176989E+1	270.9674	270.9775	-10.0633	1E-4
6.940505E+1	280.5203	280.5063	13.9770	1E-4
6.701920E+1	290.9130	290.8847	28.2619	1E-4
6.486839E+1	301.0367	301.0072	29.5336	1E-4
6.292585E+1	310.8551	310.8892	-34.0667	1E-4
