Thermometre :	CX_LS_X106581
Environment :	VA
Date :	14/10/2015
Function :	 logT = Sum ( Ai / logR^i )
Coefficients :	
A0=	841.722748618221320E+0
A1=	-13.802653067722727E+3
A2=	93.159914365276971E+3
A3=	-320.710558400852310E+3
A4=	509.262771797065860E+3
A5=	133.339518690569850E+3
A6=	-2.076222223720595E+6
A7=	3.747235449824720E+6
A8=	-3.042003117910411E+6
A9=	979.701109438528070E+3
Rmes(Ohm)	Tmes(K)	Tfit(K)	dT(mK)	Courant(A)
1.450243E+3	9.9309	9.9345	-3.5816	1E-5
1.331036E+3	10.9373	10.9338	3.5188	1E-5
1.234131E+3	11.9294	11.9256	3.8464	1E-5
1.152645E+3	12.9213	12.9187	2.5971	1E-5
1.082786E+3	13.9140	13.9142	-0.1898	1E-5
1.022248E+3	14.9063	14.9079	-1.5974	1E-5
9.642423E+2	15.9942	15.9975	-3.2733	1E-5
9.169522E+2	17.0001	17.0039	-3.8224	1E-5
8.749249E+2	17.9990	18.0028	-3.8412	1E-5
8.370479E+2	18.9968	19.0004	-3.6053	1E-5
8.026604E+2	19.9952	19.9975	-2.2837	1E-5
7.712331E+2	20.9935	20.9951	-1.6413	1E-5
7.424274E+2	21.9910	21.9913	-0.3400	1E-5
7.158606E+2	22.9886	22.9878	0.7579	1E-5
6.912851E+2	23.9873	23.9837	3.5783	1E-5
6.683563E+2	24.9886	24.9841	4.4656	1E-5
6.470604E+2	25.9877	25.9814	6.2832	1E-5
6.271728E+2	26.9840	26.9780	6.0222	1E-5
6.085358E+2	27.9806	27.9746	5.9947	1E-5
4.496584E+2	39.9916	39.9967	-5.0651	1E-5
4.481706E+2	40.1454	40.1508	-5.3690	1E-5
3.569446E+2	52.0759	52.0894	-13.4850	1E-5
3.076546E+2	61.4952	61.5033	-8.1448	1E-5
2.690362E+2	71.2848	71.2807	4.1063	1E-5
2.397550E+2	80.7874	80.7708	16.5846	1E-4
2.191018E+2	88.9772	88.9623	14.8888	1E-4
1.981521E+2	98.9778	98.9695	8.3155	1E-4
1.813865E+2	108.5803	108.5848	-4.4913	1E-4
1.664714E+2	118.6895	118.6962	-6.7464	1E-4
1.545343E+2	128.1143	128.1255	-11.2320	1E-4
1.426125E+2	139.0207	139.0340	-13.3264	1E-4
1.325906E+2	149.6266	149.6399	-13.2746	1E-4
1.256742E+2	157.8893	157.8960	-6.6634	1E-4
1.169574E+2	169.6366	169.6300	6.6261	1E-4
1.140374E+2	173.9583	173.9470	11.2754	1E-4
1.061700E+2	186.7350	186.7277	7.2925	1E-4
1.009007E+2	196.3947	196.3825	12.2330	1E-4
9.755075E+1	203.0666	203.0592	7.3717	1E-4
9.307355E+1	212.7471	212.7350	12.0899	1E-4
8.971114E+1	220.6546	220.6430	11.5948	1E-4
8.461849E+1	233.8261	233.8392	-13.1018	1E-4
8.132485E+1	243.2551	243.2761	-20.9901	1E-4
7.715820E+1	256.3782	256.4069	-28.6559	1E-4
7.302211E+1	270.9796	270.9895	-9.8792	1E-4
7.056064E+1	280.5439	280.5307	13.1701	1E-4
6.807958E+1	290.9367	290.9124	24.3323	1E-4
6.584629E+1	301.0503	301.0205	29.8305	1E-4
6.382031E+1	310.8986	310.9308	-32.1896	1E-4
