Thermometre :	CX_LS_X107493
Environment :	VA
Date :	14/10/2015
Function :	 logT = Sum ( Ai / logR^i )
Coefficients :	
A0=	1.090439394090114E+3
A1=	-15.885868266717582E+3
A2=	89.666615388668972E+3
A3=	-209.129555605577800E+3
A4=	-103.759616470864320E+3
A5=	1.876031813579503E+6
A6=	-4.998956288018793E+6
A7=	6.655121226664866E+6
A8=	-4.623768703238588E+6
A9=	1.339070804918763E+6
Rmes(Ohm)	Tmes(K)	Tfit(K)	dT(mK)	Courant(A)
8.896370E+2	9.9307	9.9338	-3.1259	1E-5
8.253269E+2	10.9373	10.9348	2.4627	1E-5
7.725509E+2	11.9295	11.9252	4.2639	1E-5
7.275895E+2	12.9212	12.9189	2.2552	1E-5
6.887060E+2	13.9141	13.9139	0.2298	1E-5
6.546861E+2	14.9064	14.9077	-1.2638	1E-5
6.217632E+2	15.9956	15.9991	-3.4776	1E-5
5.948090E+2	17.0005	17.0036	-3.0679	1E-5
5.706165E+2	17.9997	18.0035	-3.7525	1E-5
5.487013E+2	18.9970	19.0007	-3.7269	1E-5
5.286738E+2	19.9955	19.9981	-2.6082	1E-5
5.102742E+2	20.9939	20.9957	-1.8037	1E-5
4.933077E+2	21.9921	21.9926	-0.4906	1E-5
4.775850E+2	22.9901	22.9896	0.4898	1E-5
4.629667E+2	23.9900	23.9864	3.5920	1E-5
4.492981E+2	24.9896	24.9854	4.1898	1E-5
4.365250E+2	25.9894	25.9831	6.3184	1E-5
4.245403E+2	26.9865	26.9807	5.7921	1E-5
4.132719E+2	27.9840	27.9779	6.1214	1E-5
3.151745E+2	40.0287	40.0351	-6.4481	1E-5
3.142430E+2	40.1861	40.1891	-2.9800	1E-5
2.562811E+2	52.1310	52.1455	-14.5114	1E-5
2.244463E+2	61.5273	61.5337	-6.4055	1E-5
1.990303E+2	71.3228	71.3199	2.9488	1E-5
1.794881E+2	80.8422	80.8295	12.6558	1E-4
1.655587E+2	89.0572	89.0372	19.9961	1E-4
1.513232E+2	99.0433	99.0373	5.9972	1E-4
1.398044E+2	108.6508	108.6525	-1.6839	1E-4
1.294565E+2	118.7638	118.7669	-3.1172	1E-4
1.210641E+2	128.2303	128.2458	-15.5336	1E-4
1.127013E+2	139.0826	139.0967	-14.1407	1E-4
1.055785E+2	149.6797	149.6959	-16.1654	1E-4
1.006228E+2	157.9520	157.9603	-8.2950	1E-4
9.435049E+1	169.6908	169.6826	8.2326	1E-4
9.223266E+1	174.0148	174.0087	6.1321	1E-4
8.652347E+1	186.7745	186.7626	11.8705	1E-4
8.266865E+1	196.4364	196.4171	19.2941	1E-4
8.020722E+1	203.1068	203.0959	10.8585	1E-4
7.690972E+1	212.7710	212.7601	10.8570	1E-4
7.439302E+1	220.7725	220.7577	14.7653	1E-4
7.063417E+1	233.8397	233.8583	-18.5833	1E-4
6.818497E+1	243.2203	243.2467	-26.4118	1E-4
6.505223E+1	256.3618	256.3959	-34.0588	1E-4
6.193693E+1	270.9429	270.9523	-9.3761	1E-4
6.007852E+1	280.4733	280.4595	13.7539	1E-4
5.819457E+1	290.8652	290.8319	33.2500	1E-4
5.648689E+1	301.0099	300.9756	34.3493	1E-4
5.495142E+1	310.7683	310.8080	-39.6676	1E-4
