Thermometre :	CX_LS_X106590
Environment :	VA
Date :	14/10/2015
Function :	 logT = Sum ( Ai / logR^i )
Coefficients :	
A0=	496.143534898617420E+0
A1=	-6.056132096167782E+3
A2=	16.777559056057944E+3
A3=	114.487629683890190E+3
A4=	-1.071014243048055E+6
A5=	3.928423541441873E+6
A6=	-8.107402231464556E+6
A7=	9.866462263954058E+6
A8=	-6.640267442556374E+6
A9=	1.914368662419482E+6
Rmes(Ohm)	Tmes(K)	Tfit(K)	dT(mK)	Courant(A)
1.403833E+3	9.9309	9.9342	-3.3292	1E-5
1.289669E+3	10.9373	10.9340	3.2924	1E-5
1.196774E+3	11.9294	11.9258	3.5766	1E-5
1.118581E+3	12.9213	12.9189	2.3917	1E-5
1.051496E+3	13.9140	13.9141	-0.1311	1E-5
9.932801E+2	14.9063	14.9082	-1.9157	1E-5
9.375389E+2	15.9944	15.9966	-2.2254	1E-5
8.919725E+2	17.0002	17.0041	-3.8674	1E-5
8.515035E+2	17.9991	18.0028	-3.7313	1E-5
8.150110E+2	18.9969	19.0003	-3.3815	1E-5
7.818563E+2	19.9952	19.9975	-2.3213	1E-5
7.515506E+2	20.9936	20.9951	-1.4874	1E-5
7.237520E+2	21.9912	21.9916	-0.3550	1E-5
6.981084E+2	22.9888	22.9882	0.6147	1E-5
6.743765E+2	23.9877	23.9843	3.4127	1E-5
6.522376E+2	24.9888	24.9845	4.3449	1E-5
6.316596E+2	25.9880	25.9819	6.0679	1E-5
6.124347E+2	26.9844	26.9788	5.6017	1E-5
5.944209E+2	27.9812	27.9753	5.8752	1E-5
4.405675E+2	39.9977	40.0030	-5.3182	1E-5
4.391268E+2	40.1521	40.1570	-4.9004	1E-5
3.506289E+2	52.0849	52.0986	-13.7179	1E-5
3.027903E+2	61.5005	61.5076	-7.1022	1E-5
2.652529E+2	71.2910	71.2863	4.6827	1E-5
2.367665E+2	80.7965	80.7807	15.8337	1E-4
2.166661E+2	88.9902	88.9753	14.8639	1E-4
1.962790E+2	98.9884	98.9805	7.8503	1E-4
1.799521E+2	108.5920	108.5957	-3.6530	1E-4
1.654184E+2	118.7019	118.7085	-6.6004	1E-4
1.537732E+2	128.1336	128.1469	-13.2826	1E-4
1.421609E+2	139.0310	139.0453	-14.3310	1E-4
1.323873E+2	149.6354	149.6507	-15.3268	1E-4
1.256422E+2	157.8998	157.9051	-5.3329	1E-4
1.171405E+2	169.6456	169.6364	9.2152	1E-4
1.142911E+2	173.9677	173.9544	13.3281	1E-4
1.066166E+2	186.7415	186.7329	8.5507	1E-4
1.014750E+2	196.4017	196.3886	13.0849	1E-4
9.820624E+1	203.0733	203.0659	7.4016	1E-4
9.383843E+1	212.7511	212.7402	10.9426	1E-4
9.055112E+1	220.6741	220.6641	9.9746	1E-4
8.558833E+1	233.8284	233.8435	-15.1217	1E-4
8.237692E+1	243.2494	243.2722	-22.8178	1E-4
7.831015E+1	256.3755	256.4051	-29.5871	1E-4
7.427600E+1	270.9737	270.9824	-8.6721	1E-4
7.187665E+1	280.5321	280.5168	15.2900	1E-4
6.945753E+1	290.9248	290.8973	27.4738	1E-4
6.727880E+1	301.0436	301.0145	29.1464	1E-4
6.530750E+1	310.8769	310.9112	-34.3275	1E-4
