Thermometre :	CX_LS_X106573
Environment :	VA
Date :	14/10/2015
Function :	 logT = Sum ( Ai / logR^i )
Coefficients :	
A0=	805.112539675335260E+0
A1=	-13.362939453408342E+3
A2=	91.649595156179610E+3
A3=	-323.908350456439770E+3
A4=	551.156552538636260E+3
A5=	-15.530046887445780E+3
A6=	-1.794603643899028E+6
A7=	3.442100909030758E+6
A8=	-2.863854888278817E+6
A9=	936.468856279495640E+3
Rmes(Ohm)	Tmes(K)	Tfit(K)	dT(mK)	Courant(A)
1.544030E+3	9.9309	9.9338	-2.8740	1E-5
1.414413E+3	10.9373	10.9350	2.3286	1E-5
1.309550E+3	11.9294	11.9259	3.4887	1E-5
1.221448E+3	12.9214	12.9190	2.4199	1E-5
1.146096E+3	13.9140	13.9135	0.5225	1E-5
1.080820E+3	14.9063	14.9072	-0.8861	1E-5
1.018358E+3	15.9940	15.9968	-2.7792	1E-5
9.674707E+2	17.0000	17.0038	-3.8356	1E-5
9.223222E+2	17.9989	18.0028	-3.9331	1E-5
8.816757E+2	18.9968	19.0004	-3.6479	1E-5
8.448134E+2	19.9951	19.9975	-2.3771	1E-5
8.111517E+2	20.9935	20.9952	-1.6914	1E-5
7.803260E+2	21.9909	21.9914	-0.5119	1E-5
7.519236E+2	22.9884	22.9878	0.6052	1E-5
7.256701E+2	23.9870	23.9836	3.4272	1E-5
7.011847E+2	24.9885	24.9843	4.2213	1E-5
6.784678E+2	25.9875	25.9815	6.0036	1E-5
6.572671E+2	26.9837	26.9780	5.6763	1E-5
6.374194E+2	27.9802	27.9743	5.9291	1E-5
4.687717E+2	39.9870	39.9915	-4.5338	1E-5
4.671963E+2	40.1404	40.1457	-5.2918	1E-5
3.708649E+2	52.0692	52.0815	-12.3044	1E-5
3.189745E+2	61.4913	61.4992	-7.9185	1E-5
2.784444E+2	71.2802	71.2759	4.2935	1E-5
2.477812E+2	80.7806	80.7651	15.4899	1E-4
2.261925E+2	88.9676	88.9551	12.4736	1E-4
2.043255E+2	98.9697	98.9619	7.8428	1E-4
1.868562E+2	108.5718	108.5750	-3.2220	1E-4
1.713341E+2	118.6806	118.6863	-5.7393	1E-4
1.589346E+2	128.1004	128.1099	-9.5307	1E-4
1.465508E+2	139.0133	139.0262	-12.8593	1E-4
1.361599E+2	149.6202	149.6339	-13.6670	1E-4
1.289978E+2	157.8818	157.8897	-7.8538	1E-4
1.199784E+2	169.6302	169.6258	4.3798	1E-4
1.169613E+2	173.9516	173.9409	10.7465	1E-4
1.088379E+2	186.7302	186.7155	14.7377	1E-4
1.033940E+2	196.3898	196.3802	9.6066	1E-4
9.993897E+1	203.0618	203.0569	4.9064	1E-4
9.532350E+1	212.7443	212.7337	10.5685	1E-4
9.186502E+1	220.6404	220.6293	11.1319	1E-4
8.661774E+1	233.8245	233.8369	-12.4329	1E-4
8.322763E+1	243.2593	243.2802	-20.8898	1E-4
7.894649E+1	256.3801	256.4068	-26.6753	1E-4
7.469842E+1	270.9841	270.9925	-8.3945	1E-4
7.217148E+1	280.5523	280.5391	13.2311	1E-4
6.962682E+1	290.9453	290.9228	22.5081	1E-4
6.733843E+1	301.0551	301.0277	27.3703	1E-4
6.526093E+1	310.9143	310.9444	-30.0736	1E-4
