Thermometre :	CX_LS_X106959
Environment :	VA
Date :	14/10/2015
Function :	 logT = Sum ( Ai / logR^i )
Coefficients :	
A0=	1.451587058047816E+3
A1=	-23.460226405769477E+3
A2=	158.418426523973500E+3
A3=	-564.484688205980230E+3
A4=	1.050374150754515E+6
A5=	-567.238682424479280E+3
A6=	-1.630258302899841E+6
A7=	3.744052443627774E+6
A8=	-3.198390037791268E+6
A9=	1.039694660788346E+6
Rmes(Ohm)	Tmes(K)	Tfit(K)	dT(mK)	Courant(A)
9.799723E+2	9.9308	9.9339	-3.0563	1E-5
9.085333E+2	10.9373	10.9348	2.5095	1E-5
8.499280E+2	11.9295	11.9257	3.8275	1E-5
8.000857E+2	12.9213	12.9188	2.4633	1E-5
7.569830E+2	13.9140	13.9137	0.3277	1E-5
7.192687E+2	14.9064	14.9079	-1.5417	1E-5
6.828502E+2	15.9952	15.9979	-2.6976	1E-5
6.529635E+2	17.0004	17.0038	-3.4016	1E-5
6.261987E+2	17.9995	18.0032	-3.7480	1E-5
6.019450E+2	18.9970	19.0007	-3.7182	1E-5
5.797926E+2	19.9954	19.9980	-2.6356	1E-5
5.594436E+2	20.9938	20.9957	-1.8954	1E-5
5.406905E+2	21.9918	21.9923	-0.5053	1E-5
5.233135E+2	22.9897	22.9892	0.5061	1E-5
5.071608E+2	23.9892	23.9858	3.3506	1E-5
4.920543E+2	24.9894	24.9851	4.2582	1E-5
4.779463E+2	25.9889	25.9827	6.2055	1E-5
4.647154E+2	26.9858	26.9799	5.8913	1E-5
4.522743E+2	27.9831	27.9769	6.1804	1E-5
3.441247E+2	40.0180	40.0237	-5.7065	1E-5
3.430962E+2	40.1746	40.1778	-3.2464	1E-5
2.792414E+2	52.1151	52.1307	-15.5766	1E-5
2.441735E+2	61.5182	61.5251	-6.9228	1E-5
2.162277E+2	71.3121	71.3076	4.4583	1E-5
1.947585E+2	80.8265	80.8116	14.9332	1E-4
1.794630E+2	89.0342	89.0149	19.3220	1E-4
1.638282E+2	99.0246	99.0186	6.0127	1E-4
1.511888E+2	108.6306	108.6362	-5.5912	1E-4
1.398470E+2	118.7426	118.7495	-6.8540	1E-4
1.306688E+2	128.1972	128.2120	-14.7889	1E-4
1.215032E+2	139.0649	139.0747	-9.7567	1E-4
1.137091E+2	149.6645	149.6762	-11.6922	1E-4
1.082898E+2	157.9342	157.9414	-7.2453	1E-4
1.014319E+2	169.6754	169.6682	7.1952	1E-4
9.911891E+1	173.9986	173.9925	6.0905	1E-4
9.287969E+1	186.7632	186.7527	10.5387	1E-4
8.866979E+1	196.4245	196.4086	15.9496	1E-4
8.598283E+1	203.0954	203.0866	8.7646	1E-4
8.238233E+1	212.7642	212.7539	10.3010	1E-4
7.964376E+1	220.7388	220.7276	11.2168	1E-4
7.553508E+1	233.8358	233.8513	-15.5107	1E-4
7.286038E+1	243.2303	243.2522	-21.9012	1E-4
6.944611E+1	256.3665	256.3972	-30.6901	1E-4
6.604918E+1	270.9534	270.9624	-9.0256	1E-4
6.402256E+1	280.4933	280.4799	13.4435	1E-4
6.196976E+1	290.8857	290.8566	29.0975	1E-4
6.011109E+1	301.0214	300.9923	29.0544	1E-4
5.843551E+1	310.8056	310.8398	-34.2051	1E-4
