Thermometre :	CX_LS_X106588
Environment :	VA
Date :	14/10/2015
Function :	 logT = Sum ( Ai / logR^i )
Coefficients :	
A0=	1.054472155325163E+3
A1=	-17.468476593656025E+3
A2=	121.143866375028840E+3
A3=	-445.909226298742810E+3
A4=	874.696714395651130E+3
A5=	-597.034127659134450E+3
A6=	-1.064773498064560E+6
A7=	2.803864572294350E+6
A8=	-2.503775720759617E+6
A9=	837.510801297829370E+3
Rmes(Ohm)	Tmes(K)	Tfit(K)	dT(mK)	Courant(A)
1.253217E+3	9.9309	9.9343	-3.3520	1E-5
1.154202E+3	10.9373	10.9340	3.3004	1E-5
1.073424E+3	11.9294	11.9261	3.3378	1E-5
1.005331E+3	12.9213	12.9185	2.7676	1E-5
9.467213E+2	13.9140	13.9142	-0.1583	1E-5
8.957993E+2	14.9063	14.9078	-1.4628	1E-5
8.468783E+2	15.9944	15.9971	-2.6970	1E-5
8.068764E+2	17.0001	17.0037	-3.6253	1E-5
7.712409E+2	17.9991	18.0030	-3.8762	1E-5
7.390701E+2	18.9969	19.0005	-3.5636	1E-5
7.098000E+2	19.9952	19.9976	-2.4391	1E-5
6.830026E+2	20.9936	20.9953	-1.6829	1E-5
6.583920E+2	21.9911	21.9917	-0.5843	1E-5
6.356600E+2	22.9888	22.9882	0.5658	1E-5
6.145987E+2	23.9876	23.9842	3.4476	1E-5
5.949235E+2	24.9888	24.9844	4.4385	1E-5
5.766180E+2	25.9879	25.9817	6.1877	1E-5
5.594972E+2	26.9843	26.9785	5.8164	1E-5
5.434367E+2	27.9810	27.9750	5.9746	1E-5
4.055750E+2	39.9960	40.0010	-5.0236	1E-5
4.042776E+2	40.1504	40.1550	-4.5679	1E-5
3.242943E+2	52.0824	52.0964	-13.9892	1E-5
2.808058E+2	61.4991	61.5068	-7.6938	1E-5
2.465491E+2	71.2893	71.2846	4.7283	1E-5
2.204588E+2	80.7940	80.7778	16.1886	1E-4
2.019940E+2	88.9868	88.9721	14.6730	1E-4
1.832125E+2	98.9856	98.9793	6.3192	1E-4
1.681381E+2	108.5887	108.5930	-4.2896	1E-4
1.546881E+2	118.6984	118.7042	-5.7860	1E-4
1.438898E+2	128.1286	128.1395	-10.8895	1E-4
1.330941E+2	139.0281	139.0405	-12.3599	1E-4
1.239912E+2	149.6330	149.6465	-13.5278	1E-4
1.176972E+2	157.8968	157.9032	-6.4166	1E-4
1.097523E+2	169.6431	169.6359	7.2232	1E-4
1.070861E+2	173.9651	173.9543	10.7575	1E-4
9.989683E+1	186.7397	186.7327	6.9839	1E-4
9.507270E+1	196.3997	196.3880	11.7120	1E-4
9.200258E+1	203.0714	203.0647	6.7255	1E-4
8.789590E+1	212.7500	212.7384	11.5538	1E-4
8.480387E+1	220.6687	220.6569	11.7773	1E-4
8.012582E+1	233.8277	233.8407	-13.0122	1E-4
7.709575E+1	243.2510	243.2710	-20.0390	1E-4
7.325493E+1	256.3762	256.4046	-28.3698	1E-4
6.943915E+1	270.9754	270.9851	-9.6537	1E-4
6.716671E+1	280.5354	280.5223	13.0791	1E-4
6.487352E+1	290.9282	290.9038	24.3752	1E-4
6.280673E+1	301.0454	301.0169	28.5113	1E-4
6.093355E+1	310.8829	310.9143	-31.3995	1E-4
