Thermometre :	CX_LS_X107586
Environment :	VA
Date :	25/02/2016
Function :	 logT = Sum ( Ai / logR^i )
Coefficients :	
A0=	1.225877010985146E+3
A1=	-18.880725983467943E+3
A2=	117.880185509748840E+3
A3=	-358.907125309314110E+3
A4=	392.231971039855620E+3
A5=	811.232240421738710E+3
A6=	-3.516521956166641E+6
A7=	5.366300521686778E+6
A8=	-3.991085897862568E+6
A9=	1.206352760432963E+6
Rmes(Ohm)	Tmes(K)	Tfit(K)	dT(mK)	Courant(A)
9.471063E+2	9.9281	9.9315	-3.3929	1E-5
8.780313E+2	10.9344	10.9313	3.1339	1E-5
8.211298E+2	11.9302	11.9254	4.7579	1E-5
7.727300E+2	12.9238	12.9228	1.0210	1E-5
7.313093E+2	13.9116	13.9114	0.1905	1E-5
6.948669E+2	14.9021	14.9046	-2.4606	1E-5
6.595899E+2	15.9935	15.9962	-2.6712	1E-5
6.307024E+2	16.9988	17.0016	-2.8426	1E-5
6.048784E+2	17.9957	17.9989	-3.1726	1E-5
5.815378E+2	18.9885	18.9913	-2.8383	1E-5
5.601465E+2	19.9853	19.9869	-1.5690	1E-5
5.404318E+2	20.9847	20.9861	-1.4490	1E-5
5.221624E+2	21.9902	21.9904	-0.2010	1E-5
5.053745E+2	22.9871	22.9869	0.1558	1E-5
4.897818E+2	23.9836	23.9825	1.1175	1E-5
4.751613E+2	24.9872	24.9833	3.8804	1E-5
4.615414E+2	25.9843	25.9800	4.3023	1E-5
4.487658E+2	26.9818	26.9765	5.2601	1E-5
4.367481E+2	27.9782	27.9733	4.8994	1E-5
4.253698E+2	28.9778	28.9746	3.1819	1E-5
4.156808E+2	29.8763	29.8750	1.3037	1E-5
3.653882E+2	35.3926	35.3937	-1.1003	1E-5
3.323473E+2	40.0030	40.0102	-7.2005	1E-5
2.719690E+2	51.5567	51.5720	-15.2695	1E-5
2.382621E+2	60.7385	60.7453	-6.7534	1E-5
2.111737E+2	70.3623	70.3585	3.8267	1E-5
1.902341E+2	79.7644	79.7545	9.8514	1E-4
1.750029E+2	88.0693	88.0551	14.1860	1E-4
1.606444E+2	97.3731	97.3618	11.3144	1E-4
1.482691E+2	106.8594	106.8556	3.7999	1E-4
1.373391E+2	116.6698	116.6759	-6.1002	1E-4
1.276923E+2	126.7330	126.7415	-8.5371	1E-4
1.196684E+2	136.3337	136.3459	-12.1913	1E-4
1.119802E+2	146.8161	146.8342	-18.1403	1E-4
1.067829E+2	154.7648	154.7789	-14.1121	1E-4
9.973813E+1	166.8694	166.8768	-7.3714	1E-4
9.799147E+1	170.1520	170.1488	3.2177	1E-4
9.219788E+1	181.9263	181.9100	16.2953	1E-4
8.775044E+1	192.0475	192.0279	19.6141	1E-4
8.517449E+1	198.4196	198.3933	26.2588	1E-4
8.156216E+1	208.0561	208.0353	20.8374	1E-4
7.901469E+1	215.4047	215.3994	5.2505	1E-4
7.525905E+1	227.2213	227.2338	-12.5454	1E-4
7.255901E+1	236.5348	236.5618	-27.0461	1E-4
6.920620E+1	249.2150	249.2515	-36.4859	1E-4
6.405838E+1	271.5833	271.6025	-19.1754	1E-4
6.277540E+1	277.8222	277.8164	5.8441	1E-4
6.056337E+1	289.2849	289.2496	35.2578	1E-4
6.027681E+1	290.8341	290.8038	30.3390	1E-4
5.686529E+1	310.8033	310.8298	-26.4875	1E-4
