Thermometre :	CX_LS_X108168
Environment :	VA
Date :	25/02/2016
Function :	 logT = Sum ( Ai / logR^i )
Coefficients :	
A0=	1.848509330745693E+3
A1=	-29.562471169394423E+3
A2=	200.237826685549230E+3
A3=	-736.461061345583180E+3
A4=	1.534689644421909E+6
A5=	-1.567584458009502E+6
A6=	-102.250179425938880E+3
A7=	2.116411328465009E+6
A8=	-2.139742868422911E+6
A9=	728.853050582035330E+3
Rmes(Ohm)	Tmes(K)	Tfit(K)	dT(mK)	Courant(A)
7.510458E+2	9.9282	9.9319	-3.6826	1E-5
6.996332E+2	10.9345	10.9313	3.1678	1E-5
6.568636E+2	11.9354	11.9299	5.4557	1E-5
6.206723E+2	12.9231	12.9217	1.4353	1E-5
5.893192E+2	13.9116	13.9122	-0.5655	1E-5
5.617077E+2	14.9021	14.9043	-2.1530	1E-5
5.348260E+2	15.9942	15.9967	-2.5087	1E-5
5.127501E+2	16.9990	17.0023	-3.2721	1E-5
4.929878E+2	17.9949	17.9977	-2.8248	1E-5
4.749989E+2	18.9888	18.9925	-3.7402	1E-5
4.585140E+2	19.9857	19.9876	-1.9408	1E-5
4.432607E+2	20.9854	20.9878	-2.4407	1E-5
4.291172E+2	21.9908	21.9911	-0.2989	1E-5
4.160734E+2	22.9880	22.9879	0.1231	1E-5
4.039305E+2	23.9852	23.9837	1.4887	1E-5
3.925345E+2	24.9878	24.9836	4.2234	1E-5
3.818820E+2	25.9854	25.9806	4.7595	1E-5
3.718699E+2	26.9834	26.9776	5.7643	1E-5
3.624353E+2	27.9803	27.9747	5.5530	1E-5
3.534987E+2	28.9792	28.9750	4.1611	1E-5
3.459060E+2	29.8715	29.8709	0.6439	1E-5
3.060157E+2	35.4013	35.4022	-0.9131	1E-5
2.796974E+2	40.0103	40.0168	-6.4707	1E-5
2.311433E+2	51.5633	51.5800	-16.6742	1E-5
2.037535E+2	60.7491	60.7588	-9.7180	1E-5
1.815941E+2	70.3741	70.3722	1.8870	1E-5
1.643230E+2	79.8003	79.7873	13.0429	1E-4
1.517257E+2	88.1005	88.0846	15.9438	1E-4
1.397992E+2	97.3966	97.3825	14.1007	1E-4
1.294598E+2	106.8875	106.8791	8.3594	1E-4
1.202882E+2	116.6961	116.7042	-8.1387	1E-4
1.121640E+2	126.7572	126.7723	-15.1222	1E-4
1.053811E+2	136.3667	136.3818	-15.1149	1E-4
9.887183E+1	146.8383	146.8576	-19.3472	1E-4
9.445366E+1	154.7887	154.8026	-13.8988	1E-4
8.845153E+1	166.8901	166.8952	-5.1302	1E-4
8.696078E+1	170.1687	170.1649	3.7520	1E-4
8.200073E+1	181.9521	181.9341	17.9998	1E-4
7.819016E+1	192.0650	192.0420	23.0095	1E-4
7.597784E+1	198.4314	198.4048	26.5965	1E-4
7.287583E+1	208.0471	208.0251	21.9698	1E-4
7.067359E+1	215.4144	215.4099	4.5031	1E-4
6.743228E+1	227.2225	227.2378	-15.2852	1E-4
6.510262E+1	236.5119	236.5396	-27.6727	1E-4
6.219359E+1	249.2015	249.2403	-38.8095	1E-4
5.771791E+1	271.5810	271.6006	-19.5904	1E-4
5.660009E+1	277.8234	277.8185	4.9430	1E-4
5.468437E+1	289.2134	289.1766	36.8480	1E-4
5.443096E+1	290.7859	290.7517	34.2168	1E-4
5.145482E+1	310.7299	310.7585	-28.6487	1E-4
