Thermometre :	CX_LS_X104941
Environment :	VA
Date :	14/10/2015
Function :	 logT = Sum ( Ai / logR^i )
Coefficients :	
A0=	638.620913700016780E+0
A1=	-10.829289093866962E+3
A2=	75.398462267707975E+3
A3=	-266.410324974598250E+3
A4=	425.570656936133920E+3
A5=	175.373917488925540E+3
A6=	-2.042077529850928E+6
A7=	3.740594029698201E+6
A8=	-3.120031430013507E+6
A9=	1.035852847822396E+6
Rmes(Ohm)	Tmes(K)	Tfit(K)	dT(mK)	Courant(A)
2.045477E+3	9.9310	9.9340	-3.0383	1E-5
1.861872E+3	10.9372	10.9347	2.5049	1E-5
1.714319E+3	11.9294	11.9254	3.9656	1E-5
1.591022E+3	12.9214	12.9192	2.2261	1E-5
1.486228E+3	13.9140	13.9138	0.2121	1E-5
1.395907E+3	14.9063	14.9077	-1.3937	1E-5
1.309985E+3	15.9935	15.9964	-2.9276	1E-5
1.240312E+3	16.9999	17.0025	-2.5761	1E-5
1.178605E+3	17.9986	18.0028	-4.1903	1E-5
1.123312E+3	18.9968	19.0009	-4.0850	1E-5
1.073378E+3	19.9950	19.9977	-2.7219	1E-5
1.027932E+3	20.9933	20.9952	-1.9000	1E-5
9.864499E+2	21.9905	21.9910	-0.5476	1E-5
9.483412E+2	22.9878	22.9871	0.7450	1E-5
9.132228E+2	23.9859	23.9822	3.7003	1E-5
8.805106E+2	24.9881	24.9837	4.3850	1E-5
8.502729E+2	25.9869	25.9806	6.2588	1E-5
8.221269E+2	26.9826	26.9767	5.9096	1E-5
7.958364E+2	27.9788	27.9725	6.2795	1E-5
5.751091E+2	39.9720	39.9766	-4.6146	1E-5
5.730682E+2	40.1240	40.1307	-6.7342	1E-5
4.492381E+2	52.0470	52.0573	-10.2811	1E-5
3.831987E+2	61.4784	61.4886	-10.2229	1E-5
3.321575E+2	71.2647	71.2617	3.0194	1E-5
2.938429E+2	80.7586	80.7407	17.8554	1E-4
2.670217E+2	88.9350	88.9217	13.3002	1E-4
2.399613E+2	98.9434	98.9318	11.5649	1E-4
2.184591E+2	108.5435	108.5491	-5.5677	1E-4
1.994547E+2	118.6508	118.6615	-10.6859	1E-4
1.843782E+2	128.0534	128.0620	-8.5982	1E-4
1.693189E+2	138.9863	138.9999	-13.5992	1E-4
1.567610E+2	149.5989	149.6097	-10.8400	1E-4
1.481376E+2	157.8563	157.8646	-8.3447	1E-4
1.373093E+2	169.6084	169.6045	3.9400	1E-4
1.337003E+2	173.9287	173.9160	12.7412	1E-4
1.239922E+2	186.7143	186.6993	15.0399	1E-4
1.175103E+2	196.3730	196.3642	8.8430	1E-4
1.134043E+2	203.0455	203.0417	3.8253	1E-4
1.079268E+2	212.7346	212.7246	10.0435	1E-4
1.038521E+2	220.5931	220.5814	11.6672	1E-4
9.763277E+1	233.8190	233.8312	-12.1978	1E-4
9.362822E+1	243.2733	243.2955	-22.2384	1E-4
8.859648E+1	256.3868	256.4119	-25.1456	1E-4
8.360790E+1	270.9990	271.0069	-7.8740	1E-4
8.064412E+1	280.5808	280.5665	14.2845	1E-4
7.766679E+1	290.9740	290.9551	18.9147	1E-4
7.499895E+1	301.0714	301.0422	29.1818	1E-4
7.256671E+1	310.9673	310.9974	-30.0953	1E-4
