Thermometre :	CX_LS_X105672
Environment :	VA
Date :	25/02/2016
Function :	 logT = Sum ( Ai / logR^i )
Coefficients :	
A0=	651.387115381471060E+0
A1=	-8.283549356274772E+3
A2=	30.309470625115537E+3
A3=	68.105019934651835E+3
A4=	-965.519331854339220E+3
A5=	3.735586405460002E+6
A6=	-7.784872002784659E+6
A7=	9.433991281401740E+6
A8=	-6.283311518044980E+6
A9=	1.786770535735804E+6
Rmes(Ohm)	Tmes(K)	Tfit(K)	dT(mK)	Courant(A)
1.118349E+3	9.9283	9.9318	-3.4576	1E-5
1.031984E+3	10.9345	10.9310	3.4896	1E-5
9.605016E+2	11.9409	11.9362	4.6515	1E-5
9.013996E+2	12.9224	12.9216	0.8179	1E-5
8.502871E+2	13.9116	13.9125	-0.8613	1E-5
8.056899E+2	14.9022	14.9039	-1.7281	1E-5
7.625663E+2	15.9950	15.9970	-1.9529	1E-5
7.274570E+2	16.9992	17.0018	-2.6019	1E-5
6.962161E+2	17.9941	17.9970	-2.9168	1E-5
6.679197E+2	18.9892	18.9927	-3.5305	1E-5
6.421436E+2	19.9862	19.9885	-2.3267	1E-5
6.184770E+2	20.9862	20.9870	-0.8235	1E-5
5.965765E+2	21.9913	21.9916	-0.3419	1E-5
5.764946E+2	22.9889	22.9889	-0.0054	1E-5
5.578802E+2	23.9869	23.9855	1.4074	1E-5
5.405085E+2	24.9883	24.9848	3.4706	1E-5
5.243169E+2	25.9865	25.9826	3.9001	1E-5
5.091619E+2	26.9851	26.9801	5.0024	1E-5
4.949341E+2	27.9825	27.9778	4.7358	1E-5
4.815177E+2	28.9807	28.9777	2.9865	1E-5
4.702880E+2	29.8665	29.8625	3.9612	1E-5
4.109386E+2	35.4105	35.4130	-2.4717	1E-5
3.725000E+2	40.0179	40.0246	-6.6768	1E-5
3.027264E+2	51.5703	51.5858	-15.5032	1E-5
2.640504E+2	60.7603	60.7690	-8.7117	1E-5
2.331652E+2	70.3866	70.3845	2.1491	1E-5
2.093042E+2	79.8377	79.8220	15.7154	1E-4
1.920922E+2	88.1332	88.1201	13.0888	1E-4
1.759284E+2	97.4213	97.4114	9.8646	1E-4
1.620029E+2	106.9169	106.9078	9.1307	1E-4
1.497314E+2	116.7237	116.7304	-6.7420	1E-4
1.389224E+2	126.7829	126.7984	-15.4698	1E-4
1.299347E+2	136.4015	136.4196	-18.0851	1E-4
1.213763E+2	146.8616	146.8767	-15.1340	1E-4
1.155785E+2	154.8141	154.8235	-9.3832	1E-4
1.077372E+2	166.9116	166.9129	-1.3294	1E-4
1.057955E+2	170.1863	170.1815	4.8272	1E-4
9.934014E+1	181.9791	181.9689	10.2485	1E-4
9.441245E+1	192.0834	192.0650	18.3767	1E-4
9.155788E+1	198.4439	198.4225	21.4474	1E-4
8.757252E+1	208.0375	208.0148	22.7263	1E-4
8.473532E+1	215.4247	215.4162	8.4562	1E-4
8.058299E+1	227.2237	227.2354	-11.7057	1E-4
7.761172E+1	236.4880	236.5134	-25.3854	1E-4
7.389805E+1	249.1872	249.2260	-38.8006	1E-4
6.820802E+1	271.5785	271.5984	-19.9045	1E-4
6.679066E+1	277.8247	277.8204	4.2825	1E-4
6.438183E+1	289.1377	289.1048	32.8770	1E-4
6.405731E+1	290.7352	290.7000	35.2297	1E-4
6.030528E+1	310.6526	310.6796	-27.0131	1E-4
