Thermometre :	CX_LS_X107581
Environment :	VA
Date :	25/02/2016
Function :	 logT = Sum ( Ai / logR^i )
Coefficients :	
A0=	1.115818602034326E+3
A1=	-17.912589977001720E+3
A2=	118.908474221052220E+3
A3=	-406.714948637171880E+3
A4=	667.538616274179310E+3
A5=	-1.537228057922141E+3
A6=	-2.096051788796650E+6
A7=	3.880754433741806E+6
A8=	-3.129740376812460E+6
A9=	993.184230078698490E+3
Rmes(Ohm)	Tmes(K)	Tfit(K)	dT(mK)	Courant(A)
1.089804E+3	9.9281	9.9314	-3.3000	1E-5
1.006610E+3	10.9344	10.9312	3.1562	1E-5
9.384274E+2	11.9284	11.9243	4.1157	1E-5
8.804988E+2	12.9240	12.9230	1.0477	1E-5
8.312064E+2	13.9116	13.9105	1.0648	1E-5
7.879036E+2	14.9021	14.9041	-2.0106	1E-5
7.461015E+2	15.9932	15.9965	-3.2683	1E-5
7.120032E+2	16.9987	17.0015	-2.8396	1E-5
6.815532E+2	17.9959	17.9998	-3.9158	1E-5
6.541800E+2	18.9883	18.9902	-1.9009	1E-5
6.290381E+2	19.9852	19.9880	-2.7932	1E-5
6.060189E+2	20.9845	20.9850	-0.5402	1E-5
5.846599E+2	21.9900	21.9903	-0.2662	1E-5
5.650909E+2	22.9868	22.9867	0.0593	1E-5
5.469509E+2	23.9831	23.9820	1.0863	1E-5
5.299563E+2	24.9871	24.9835	3.6389	1E-5
5.141660E+2	25.9839	25.9798	4.1116	1E-5
4.993748E+2	26.9812	26.9762	5.0428	1E-5
4.854799E+2	27.9774	27.9729	4.5164	1E-5
4.723390E+2	28.9773	28.9745	2.8014	1E-5
4.611725E+2	29.8779	29.8744	3.4536	1E-5
4.034307E+2	35.3896	35.3907	-1.1098	1E-5
3.656864E+2	40.0005	40.0081	-7.5884	1E-5
2.971969E+2	51.5544	51.5702	-15.7725	1E-5
2.592464E+2	60.7349	60.7420	-7.1036	1E-5
2.288940E+2	70.3581	70.3553	2.7543	1E-5
2.055506E+2	79.7522	79.7419	10.3441	1E-4
1.886104E+2	88.0584	88.0414	16.9739	1E-4
1.726804E+2	97.3649	97.3513	13.5951	1E-4
1.589908E+2	106.8498	106.8479	1.9120	1E-4
1.469329E+2	116.6606	116.6705	-9.9256	1E-4
1.363215E+2	126.7246	126.7343	-9.6550	1E-4
1.275183E+2	136.3221	136.3328	-10.6814	1E-4
1.190922E+2	146.8083	146.8257	-17.3767	1E-4
1.134092E+2	154.7565	154.7698	-13.2537	1E-4
1.057177E+2	166.8622	166.8694	-7.1942	1E-4
1.038129E+2	170.1461	170.1423	3.8467	1E-4
9.750480E+1	181.9173	181.9005	16.7847	1E-4
9.266673E+1	192.0414	192.0219	19.4561	1E-4
8.986760E+1	198.4155	198.3894	26.0510	1E-4
8.594381E+1	208.0593	208.0403	19.0448	1E-4
8.318481E+1	215.4013	215.3966	4.6859	1E-4
7.911620E+1	227.2209	227.2332	-12.3062	1E-4
7.619209E+1	236.5428	236.5703	-27.5314	1E-4
7.256992E+1	249.2196	249.2547	-35.0846	1E-4
6.701550E+1	271.5841	271.6010	-16.9273	1E-4
6.563239E+1	277.8218	277.8150	6.7674	1E-4
6.324336E+1	289.3100	289.2769	33.0844	1E-4
6.293644E+1	290.8507	290.8226	28.0570	1E-4
5.926299E+1	310.8290	310.8541	-25.1210	1E-4
