**Manufacturer reference [X139133] 
=> Used on CM07 [TT08]**


Thermometre :	CX_LS_X139133
Environment :	VA
Date :	18/12/2019
Function :	 logT = Sum ( Ai / logR^i )
Coefficients :	
A0=	849.215194435831330E+0
A1=	-12.981304043603952E+3
A2=	77.349332683420332E+3
A3=	-195.961073837644480E+3
A4=	-42.762904598821471E+3
A5=	1.645029234655675E+6
A6=	-4.707156190279593E+6
A7=	6.592633261715806E+6
A8=	-4.791537426465794E+6
A9=	1.448115906007272E+6
Rmes(Ohm)	Tmes(K)	Tfit(K)	dT(mK)	Courant(A)
1.273662E+3	9.9365	9.9392	-2.7262	1E-5
1.173093E+3	10.9417	10.9396	2.0898	1E-5
1.091085E+3	11.9345	11.9309	3.6052	1E-5
1.021756E+3	12.9273	12.9249	2.3803	1E-5
9.622400E+2	13.9197	13.9191	0.5638	1E-5
9.103832E+2	14.9119	14.9139	-2.0355	1E-5
8.604764E+2	16.0042	16.0067	-2.4918	1E-5
8.199815E+2	17.0048	17.0086	-3.8396	1E-5
7.837301E+2	18.0045	18.0079	-3.3915	1E-5
7.510113E+2	19.0024	19.0052	-2.8136	1E-5
7.212637E+2	19.9998	20.0016	-1.7920	1E-5
6.939756E+2	21.0002	21.0006	-0.3637	1E-5
6.689151E+2	21.9993	21.9985	0.7572	1E-5
6.457912E+2	22.9977	22.9959	1.7836	1E-5
6.243666E+2	23.9959	23.9929	2.9825	1E-5
6.044269E+2	24.9941	24.9906	3.4938	1E-5
5.686894E+2	26.9761	26.9700	6.0601	1E-5
5.368538E+2	28.9778	28.9740	3.8168	1E-5
4.521701E+2	35.7825	35.7802	2.3437	1E-5
4.162206E+2	39.5513	39.5556	-4.3039	1E-5
3.300546E+2	52.0916	52.1046	-12.9924	1E-5
2.874671E+2	61.1695	61.1796	-10.0926	1E-5
2.566682E+2	69.6601	69.6637	-3.5881	1E-5
2.259383E+2	80.4867	80.4704	16.2659	1E-4
2.021946E+2	91.0999	91.0832	16.7089	1E-4
1.861421E+2	99.7995	99.7845	14.9726	1E-4
1.697022E+2	110.3798	110.3754	4.4029	1E-4
1.583723E+2	118.9122	118.9231	-10.9376	1E-4
1.477141E+2	128.1080	128.1240	-15.9909	1E-4
1.382431E+2	137.4364	137.4489	-12.5396	1E-4
1.292902E+2	147.4597	147.4749	-15.1574	1E-4
1.216529E+2	157.1465	157.1550	-8.5192	1E-4
1.150883E+2	166.4670	166.4741	-7.0953	1E-4
1.089650E+2	176.1683	176.1594	8.8677	1E-4
1.028376E+2	187.0176	186.9957	21.9400	1E-4
9.795826E+1	196.6191	196.5968	22.2637	1E-4
9.449373E+1	204.0415	204.0238	17.6989	1E-4
9.024397E+1	213.9413	213.9300	11.2980	1E-4
8.355687E+1	231.6053	231.6241	-18.8159	1E-4
7.964307E+1	243.3853	243.4147	-29.3732	1E-4
7.635373E+1	254.2800	254.3036	-23.6457	1E-4
7.184736E+1	270.9360	270.9366	-0.5550	1E-4
6.718009E+1	290.7632	290.7286	34.6038	1E-4
6.510115E+1	300.6215	300.5937	27.8087	1E-4
6.312481E+1	310.6845	310.7182	-33.6643	1E-4
