**Manufacturer reference [X137124] 
=> Used on CM07 [TT12]**


Thermometre :	CX_LS_X137124
Environment :	VA
Date :	18/12/2019
Function :	 logT = Sum ( Ai / logR^i )
Coefficients :	
A0=	629.516982749155770E+0
A1=	-10.158461123823590E+3
A2=	65.128634044577135E+3
A3=	-191.629715825569150E+3
A4=	108.919678780876650E+3
A5=	1.015444535125670E+6
A6=	-3.463876986961880E+6
A7=	5.235412160275681E+6
A8=	-4.010897571246351E+6
A9=	1.265908575800803E+6
Rmes(Ohm)	Tmes(K)	Tfit(K)	dT(mK)	Courant(A)
1.774779E+3	9.9364	9.9391	-2.6683	1E-5
1.621443E+3	10.9416	10.9393	2.3360	1E-5
1.497288E+3	11.9343	11.9311	3.2165	1E-5
1.393143E+3	12.9271	12.9251	1.9897	1E-5
1.304350E+3	13.9195	13.9192	0.3270	1E-5
1.227487E+3	14.9118	14.9135	-1.7172	1E-5
1.153968E+3	16.0033	16.0057	-2.3719	1E-5
1.094670E+3	17.0042	17.0068	-2.5787	1E-5
1.041726E+3	18.0039	18.0078	-3.8777	1E-5
9.943093E+2	19.0013	19.0040	-2.7358	1E-5
9.513684E+2	19.9983	19.9999	-1.6342	1E-5
9.120637E+2	20.9998	21.0007	-0.8785	1E-5
8.762140E+2	21.9987	21.9978	0.9090	1E-5
8.432383E+2	22.9968	22.9951	1.7145	1E-5
8.127992E+2	23.9943	23.9921	2.2245	1E-5
7.846102E+2	24.9919	24.9884	3.5397	1E-5
7.343856E+2	26.9695	26.9629	6.6066	1E-5
6.897581E+2	28.9734	28.9695	3.9132	1E-5
5.732218E+2	35.7345	35.7334	1.0811	1E-5
5.237989E+2	39.5270	39.5304	-3.4358	1E-5
4.079463E+2	52.0539	52.0676	-13.7297	1E-5
3.516060E+2	61.1387	61.1483	-9.5569	1E-5
3.115123E+2	69.5938	69.5944	-0.5820	1E-5
2.718107E+2	80.3910	80.3764	14.5735	1E-4
2.412991E+2	91.0350	91.0183	16.6779	1E-4
2.209515E+2	99.7096	99.6976	12.0161	1E-4
2.001833E+2	110.3065	110.3029	3.6147	1E-4
1.860174E+2	118.8228	118.8318	-8.9588	1E-4
1.727424E+2	128.0141	128.0279	-13.7887	1E-4
1.610004E+2	137.3400	137.3565	-16.4708	1E-4
1.499650E+2	147.3680	147.3813	-13.3420	1E-4
1.405866E+2	157.0640	157.0725	-8.4950	1E-4
1.325685E+2	166.3890	166.3935	-4.5347	1E-4
1.251168E+2	176.0948	176.0842	10.5643	1E-4
1.176913E+2	186.9501	186.9239	26.1757	1E-4
1.117873E+2	196.5665	196.5493	17.1961	1E-4
1.076259E+2	203.9736	203.9614	12.1580	1E-4
1.024809E+2	213.9655	213.9560	9.4800	1E-4
9.450809E+1	231.5912	231.6100	-18.7993	1E-4
8.984318E+1	243.3903	243.4166	-26.2851	1E-4
8.594536E+1	254.2704	254.2891	-18.7036	1E-4
8.058825E+1	271.0104	271.0112	-0.7748	1E-4
7.509710E+1	290.8186	290.7882	30.3784	1E-4
7.265215E+1	300.6931	300.6671	26.0355	1E-4
7.033401E+1	310.7591	310.7899	-30.8212	1E-4
