**Manufacturer reference [X139179] 
=> Used on CM06 [TT12]**


Thermometre :	CX_LS_X139179
Environment :	VA
Date :	18/12/2019
Function :	 logT = Sum ( Ai / logR^i )
Coefficients :	
A0=	877.389876435219770E+0
A1=	-12.480769493888285E+3
A2=	64.907851480077137E+3
A3=	-98.409372222831152E+3
A4=	-448.844543691759230E+3
A5=	2.661714446770261E+6
A6=	-6.287361825258510E+6
A7=	8.081153317220179E+6
A8=	-5.564251705874198E+6
A9=	1.615379011705984E+6
Rmes(Ohm)	Tmes(K)	Tfit(K)	dT(mK)	Courant(A)
1.061473E+3	9.9363	9.9392	-2.8993	1E-5
9.818599E+2	10.9415	10.9391	2.4365	1E-5
9.165622E+2	11.9342	11.9308	3.4446	1E-5
8.611660E+2	12.9270	12.9245	2.5163	1E-5
8.134061E+2	13.9195	13.9189	0.5883	1E-5
7.716558E+2	14.9117	14.9138	-2.1101	1E-5
7.313817E+2	16.0027	16.0056	-2.9061	1E-5
6.985721E+2	17.0038	17.0076	-3.7997	1E-5
6.691272E+2	18.0036	18.0067	-3.1290	1E-5
6.425078E+2	19.0006	19.0030	-2.4446	1E-5
6.182433E+2	19.9973	19.9986	-1.2849	1E-5
5.958546E+2	20.9996	21.0004	-0.8493	1E-5
5.753270E+2	21.9983	21.9977	0.5955	1E-5
5.563390E+2	22.9963	22.9948	1.4989	1E-5
5.387161E+2	23.9933	23.9913	1.9612	1E-5
5.223095E+2	24.9904	24.9870	3.3965	1E-5
4.928822E+2	26.9651	26.9584	6.7471	1E-5
4.664064E+2	28.9705	28.9675	2.9725	1E-5
3.964381E+2	35.7033	35.6964	6.8912	1E-5
3.658196E+2	39.5113	39.5164	-5.1295	1E-5
2.929195E+2	52.0294	52.0473	-17.8807	1E-5
2.564833E+2	61.1187	61.1318	-13.0569	1E-5
2.302056E+2	69.5505	69.5489	1.6073	1E-5
2.037217E+2	80.3291	80.3102	18.9047	1E-4
1.829749E+2	90.9926	90.9740	18.5503	1E-4
1.690234E+2	99.6515	99.6388	12.7156	1E-4
1.545852E+2	110.2592	110.2581	1.1262	1E-4
1.446668E+2	118.7651	118.7739	-8.7998	1E-4
1.352802E+2	127.9535	127.9679	-14.3764	1E-4
1.269053E+2	137.2773	137.2988	-21.4875	1E-4
1.189756E+2	147.3089	147.3216	-12.7441	1E-4
1.121821E+2	157.0103	157.0169	-6.5877	1E-4
1.063349E+2	166.3386	166.3432	-4.5751	1E-4
1.008701E+2	176.0474	176.0350	12.3724	1E-4
9.538699E+1	186.9062	186.8853	20.9171	1E-4
9.100738E+1	196.5325	196.5105	21.9987	1E-4
8.791120E+1	203.9298	203.9118	17.9910	1E-4
8.403613E+1	213.9814	213.9750	6.4346	1E-4
7.804591E+1	231.5818	231.6007	-18.8870	1E-4
7.450845E+1	243.3936	243.4225	-28.8721	1E-4
7.154655E+1	254.2641	254.2827	-18.5933	1E-4
6.743632E+1	271.0592	271.0658	-6.5778	1E-4
6.321973E+1	290.8549	290.8183	36.6246	1E-4
6.133022E+1	300.7404	300.7097	30.7142	1E-4
5.953605E+1	310.8074	310.8434	-36.0309	1E-4
