**Manufacturer reference [X134454] 
=> Used on CM10 [TT08]**


Thermometre :	CX_LS_X134454
Environment :	VA
Date :	02/07/2019
Function :	 logT = Sum ( Ai / logR^i )
Coefficients :	
A0=	-554.660433411872190E+0
A1=	17.022870818175368E+3
A2=	-211.473566325414020E+3
A3=	1.445588418003626E+6
A4=	-6.100599855210380E+6
A5=	16.659712769071089E+6
A6=	-29.637540891416378E+6
A7=	33.268854917188119E+6
A8=	-21.449007527842965E+6
A9=	6.065037827624966E+6
Rmes(Ohm)	Tmes(K)	Tfit(K)	dT(mK)	Courant(A)
1.937849E+3	9.9283	9.9303	-1.9938	1E-5
1.769202E+3	10.9359	10.9329	3.0094	1E-5
1.520212E+3	12.9186	12.9165	2.1148	1E-5
1.423601E+3	13.9107	13.9109	-0.2298	1E-5
1.340220E+3	14.9030	14.9048	-1.7610	1E-5
1.196112E+3	17.0005	17.0033	-2.7823	1E-5
1.087912E+3	18.9964	18.9985	-2.0531	1E-5
1.041508E+3	19.9945	19.9971	-2.6268	1E-5
9.607459E+2	21.9918	21.9914	0.3632	1E-5
8.925905E+2	23.9869	23.9842	2.7386	1E-5
8.339984E+2	25.9869	25.9811	5.7687	1E-5
6.109967E+2	37.3698	37.3684	1.4118	1E-5
6.093922E+2	37.4842	37.4822	2.0051	1E-5
6.078588E+2	37.5924	37.5915	0.8573	1E-5
6.063005E+2	37.7050	37.7033	1.7442	1E-5
4.505804E+2	52.9074	52.9225	-15.1120	1E-5
3.975680E+2	60.8962	60.9065	-10.3431	1E-5
3.513928E+2	69.8598	69.8603	-0.4742	1E-5
3.099934E+2	80.1895	80.1795	10.0198	1E-4
2.758187E+2	91.0523	91.0327	19.5510	1E-4
2.529048E+2	99.9485	99.9354	13.0998	1E-4
2.302186E+2	110.4609	110.4585	2.4301	1E-4
2.143247E+2	119.1136	119.1182	-4.5510	1E-4
1.998063E+2	128.1727	128.1875	-14.8092	1E-4
1.868042E+2	137.4395	137.4558	-16.2853	1E-4
1.746017E+2	147.3354	147.3537	-18.2531	1E-4
1.639606E+2	157.1278	157.1345	-6.7043	1E-4
1.548836E+2	166.4966	166.4967	-0.1213	1E-4
1.463258E+2	176.3552	176.3502	5.0053	1E-4
1.394461E+2	185.1384	185.1245	13.9403	1E-4
1.336811E+2	193.1828	193.1590	23.7612	1E-4
1.274638E+2	202.6441	202.6291	14.9841	1E-4
1.219237E+2	211.8919	211.8782	13.6894	1E-4
1.134982E+2	227.6819	227.6829	-0.9759	1E-4
1.097826E+2	235.4127	235.4317	-18.9706	1E-4
1.026635E+2	251.8275	251.8718	-44.2576	1E-4
9.842117E+1	262.8137	262.8253	-11.6271	1E-4
9.276316E+1	279.0565	279.0513	5.1653	1E-4
9.067162E+1	285.6198	285.5919	27.8880	1E-4
8.738189E+1	296.6067	296.5742	32.5440	1E-4
8.360349E+1	310.3956	310.4238	-28.1719	1E-4
