**Manufacturer reference [X138088] 
=> Used on CM07 [TT09]**


Thermometre :	CX_LS_X138088
Environment :	VA
Date :	18/12/2019
Function :	 logT = Sum ( Ai / logR^i )
Coefficients :	
A0=	-971.449757266548200E+0
A1=	29.299987896498456E+3
A2=	-348.777905052075980E+3
A3=	2.261637593310659E+6
A4=	-9.011242316928947E+6
A5=	23.174191245978143E+6
A6=	-38.766667326227874E+6
A7=	40.883259929424323E+6
A8=	-24.749974276351057E+6
A9=	6.569460966199319E+6
Rmes(Ohm)	Tmes(K)	Tfit(K)	dT(mK)	Courant(A)
9.588617E+2	9.9365	9.9396	-3.0524	1E-5
8.917113E+2	10.9416	10.9388	2.7879	1E-5
8.363293E+2	11.9344	11.9309	3.4748	1E-5
7.891770E+2	12.9272	12.9247	2.5011	1E-5
7.483753E+2	13.9196	13.9192	0.4021	1E-5
7.126024E+2	14.9118	14.9137	-1.9210	1E-5
6.779424E+2	16.0036	16.0063	-2.7264	1E-5
6.496255E+2	17.0044	17.0089	-4.4691	1E-5
6.241616E+2	18.0041	18.0077	-3.6370	1E-5
6.010567E+2	19.0017	19.0048	-3.0843	1E-5
5.799515E+2	19.9988	20.0006	-1.8360	1E-5
5.604727E+2	20.9999	21.0005	-0.6375	1E-5
5.425320E+2	21.9989	21.9979	0.9899	1E-5
5.258969E+2	22.9971	22.9953	1.8418	1E-5
5.104325E+2	23.9948	23.9915	3.3278	1E-5
4.959815E+2	24.9926	24.9884	4.1595	1E-5
4.699591E+2	26.9716	26.9646	7.0274	1E-5
4.465612E+2	28.9748	28.9695	5.2721	1E-5
3.837223E+2	35.7497	35.7491	0.6461	1E-5
3.564140E+2	39.5347	39.5390	-4.3238	1E-5
2.900526E+2	52.0658	52.0826	-16.8022	1E-5
2.564902E+2	61.1485	61.1599	-11.4332	1E-5
2.319337E+2	69.6148	69.6158	-0.9942	1E-5
2.070318E+2	80.4213	80.4023	19.0239	1E-4
1.874453E+2	91.0554	91.0335	21.8791	1E-4
1.740931E+2	99.7381	99.7215	16.6066	1E-4
1.602328E+2	110.3297	110.3271	2.6258	1E-4
1.506102E+2	118.8511	118.8652	-14.1329	1E-4
1.414713E+2	128.0438	128.0641	-20.2575	1E-4
1.332788E+2	137.3705	137.3900	-19.5195	1E-4
1.254727E+2	147.3970	147.4134	-16.4327	1E-4
1.187551E+2	157.0901	157.0990	-8.9072	1E-4
1.129449E+2	166.4137	166.4142	-0.5189	1E-4
1.074852E+2	176.1181	176.1011	16.9623	1E-4
1.019794E+2	186.9715	186.9495	21.9907	1E-4
9.756775E+1	196.5831	196.5604	22.6839	1E-4
9.442669E+1	203.9951	203.9778	17.3259	1E-4
9.052709E+1	213.9578	213.9447	13.0575	1E-4
8.439251E+1	231.5957	231.6184	-22.7402	1E-4
8.076707E+1	243.3888	243.4225	-33.7126	1E-4
7.771055E+1	254.2734	254.3005	-27.0587	1E-4
7.348066E+1	270.9874	270.9877	-0.2955	1E-4
6.908768E+1	290.8010	290.7609	40.1219	1E-4
6.711752E+1	300.6709	300.6357	35.1879	1E-4
6.523906E+1	310.7356	310.7770	-41.4294	1E-4
