**Manufacturer reference [X138087] 
=> Used on CM07 [TT06]**


Thermometre :	CX_LS_X138087
Environment :	VA
Date :	18/12/2019
Function :	 logT = Sum ( Ai / logR^i )
Coefficients :	
A0=	-1.151098172509166E+3
A1=	32.906055781684350E+3
A2=	-380.893399740147000E+3
A3=	2.428210514571323E+6
A4=	-9.565719475193957E+6
A5=	24.402462742665641E+6
A6=	-40.577023610352084E+6
A7=	42.594907312699005E+6
A8=	-25.691770618616428E+6
A9=	6.799181380085371E+6
Rmes(Ohm)	Tmes(K)	Tfit(K)	dT(mK)	Courant(A)
9.626016E+2	9.9365	9.9395	-3.0482	1E-5
8.948578E+2	10.9416	10.9391	2.5354	1E-5
8.390605E+2	11.9343	11.9303	3.9672	1E-5
7.914957E+2	12.9272	12.9248	2.4442	1E-5
7.503816E+2	13.9196	13.9192	0.4468	1E-5
7.143373E+2	14.9118	14.9138	-1.9776	1E-5
6.794018E+2	16.0035	16.0072	-3.7456	1E-5
6.509431E+2	17.0044	17.0079	-3.4583	1E-5
6.252704E+2	18.0041	18.0082	-4.0785	1E-5
6.020369E+2	19.0017	19.0043	-2.6209	1E-5
5.807934E+2	19.9987	20.0004	-1.7281	1E-5
5.611855E+2	20.9999	21.0009	-0.9995	1E-5
5.431451E+2	21.9988	21.9980	0.8156	1E-5
5.264192E+2	22.9971	22.9951	1.9877	1E-5
5.108660E+2	23.9948	23.9916	3.2349	1E-5
4.963411E+2	24.9925	24.9883	4.1790	1E-5
4.701931E+2	26.9714	26.9639	7.5057	1E-5
4.466720E+2	28.9747	28.9698	4.9039	1E-5
3.835833E+2	35.7484	35.7477	0.7080	1E-5
3.561728E+2	39.5341	39.5383	-4.2310	1E-5
2.896319E+2	52.0649	52.0814	-16.4584	1E-5
2.560074E+2	61.1477	61.1593	-11.5957	1E-5
2.314235E+2	69.6131	69.6147	-1.5966	1E-5
2.065061E+2	80.4189	80.4009	18.0155	1E-4
1.869158E+2	91.0540	91.0323	21.7471	1E-4
1.735681E+2	99.7358	99.7185	17.2796	1E-4
1.597145E+2	110.3279	110.3231	4.7531	1E-4
1.500980E+2	118.8489	118.8613	-12.3719	1E-4
1.409657E+2	128.0415	128.0613	-19.7700	1E-4
1.327803E+2	137.3681	137.3894	-21.2521	1E-4
1.249841E+2	147.3948	147.4137	-18.8570	1E-4
1.182775E+2	157.0880	157.0992	-11.1745	1E-4
1.124790E+2	166.4117	166.4134	-1.6790	1E-4
1.070320E+2	176.1163	176.0990	17.3487	1E-4
1.015404E+2	186.9698	186.9464	23.3642	1E-4
9.714136E+1	196.5818	196.5568	25.0218	1E-4
9.400995E+1	203.9934	203.9738	19.5691	1E-4
9.012179E+1	213.9585	213.9439	14.5515	1E-4
8.400828E+1	231.5952	231.6188	-23.6224	1E-4
8.039545E+1	243.3889	243.4249	-35.9968	1E-4
7.735001E+1	254.2731	254.3034	-30.2868	1E-4
7.313573E+1	270.9895	270.9899	-0.4268	1E-4
6.875990E+1	290.8026	290.7590	43.6139	1E-4
6.679726E+1	300.6729	300.6359	37.0163	1E-4
6.492661E+1	310.7374	310.7815	-44.0581	1E-4
