**Manufacturer reference [X134453] 
=> Used on CM11 [TT08]**


Thermometre :	CX_LS_X134453
Environment :	VA
Date :	02/07/2019
Function :	 logT = Sum ( Ai / logR^i )
Coefficients :	
A0=	-620.806814187342180E+0
A1=	18.246360596357743E+3
A2=	-222.365948212177230E+3
A3=	1.508269753836891E+6
A4=	-6.355189168291833E+6
A5=	17.392495951293480E+6
A6=	-31.082354074893411E+6
A7=	35.106721972620770E+6
A8=	-22.800051943289865E+6
A9=	6.499776117411339E+6
Rmes(Ohm)	Tmes(K)	Tfit(K)	dT(mK)	Courant(A)
2.219391E+3	9.9283	9.9303	-1.9559	1E-5
2.019353E+3	10.9359	10.9329	3.0213	1E-5
1.725552E+3	12.9186	12.9167	1.9184	1E-5
1.612143E+3	13.9107	13.9109	-0.2341	1E-5
1.514512E+3	14.9030	14.9048	-1.8114	1E-5
1.346437E+3	17.0005	17.0031	-2.5867	1E-5
1.220791E+3	18.9964	18.9983	-1.8967	1E-5
1.167063E+3	19.9945	19.9970	-2.5100	1E-5
1.073795E+3	21.9918	21.9914	0.4230	1E-5
9.953308E+2	23.9869	23.9842	2.6703	1E-5
9.280694E+2	25.9868	25.9812	5.5574	1E-5
6.738393E+2	37.3692	37.3678	1.3566	1E-5
6.720187E+2	37.4836	37.4818	1.8171	1E-5
6.702806E+2	37.5918	37.5912	0.6462	1E-5
6.685163E+2	37.7044	37.7028	1.6280	1E-5
4.928965E+2	52.9070	52.9218	-14.7860	1E-5
4.335201E+2	60.8958	60.9057	-9.8661	1E-5
3.819999E+2	69.8586	69.8582	0.4249	1E-5
3.359731E+2	80.1870	80.1764	10.6202	1E-4
2.980962E+2	91.0511	91.0328	18.2580	1E-4
2.727774E+2	99.9472	99.9369	10.3379	1E-4
2.477818E+2	110.4595	110.4573	2.1584	1E-4
2.303052E+2	119.1126	119.1164	-3.8466	1E-4
2.143701E+2	128.1717	128.1854	-13.6607	1E-4
2.001228E+2	137.4386	137.4540	-15.3853	1E-4
1.867745E+2	147.3346	147.3516	-17.0358	1E-4
1.751515E+2	157.1270	157.1328	-5.7948	1E-4
1.652502E+2	166.4960	166.4956	0.3944	1E-4
1.559263E+2	176.3547	176.3505	4.1597	1E-4
1.484364E+2	185.1424	185.1297	12.6655	1E-4
1.421700E+2	193.1861	193.1640	22.0536	1E-4
1.354185E+2	202.6476	202.6336	13.9946	1E-4
1.294080E+2	211.8957	211.8826	13.1325	1E-4
1.202790E+2	227.6855	227.6859	-0.3678	1E-4
1.162574E+2	235.4172	235.4346	-17.4238	1E-4
1.085605E+2	251.8313	251.8742	-42.9184	1E-4
1.039788E+2	262.8175	262.8284	-10.8933	1E-4
9.787431E+1	279.0606	279.0552	5.4079	1E-4
9.561901E+1	285.6245	285.5971	27.3947	1E-4
9.207324E+1	296.6105	296.5816	28.9130	1E-4
8.800487E+1	310.3995	310.4255	-25.9964	1E-4
