**Manufacturer reference [X138421] 
=> Used on CM05 [TT06]**


Thermometre :	CX_LS_X138421
Environment :	VA
Date :	06/02/2020
Function :	 logT = Sum ( Ai / logR^i )
Coefficients :	
A0=	542.382968950766100E+0
A1=	-8.632569355136313E+3
A2=	53.715912724622096E+3
A3=	-144.584045328502110E+3
A4=	-4.670106940375534E+3
A5=	1.166573725329166E+6
A6=	-3.531418680960196E+6
A7=	5.146267984628824E+6
A8=	-3.874393797900223E+6
A9=	1.210507424335754E+6
Rmes(Ohm)	Tmes(K)	Tfit(K)	dT(mK)	Courant(A)
1.858186E+3	9.9296	9.9321	-2.5273	1E-5
1.693759E+3	10.9377	10.9357	2.0357	1E-5
1.561423E+3	11.9296	11.9271	2.5285	1E-5
1.450836E+3	12.9219	12.9184	3.4604	1E-5
1.356395E+3	13.9138	13.9130	0.8235	1E-5
1.274970E+3	14.9028	14.9053	-2.4773	1E-5
1.197005E+3	15.9954	15.9979	-2.5082	1E-5
1.134053E+3	16.9979	17.0022	-4.3039	1E-5
1.078250E+3	17.9975	18.0005	-2.9943	1E-5
1.028258E+3	18.9941	18.9953	-1.2225	1E-5
9.827944E+2	19.9924	19.9952	-2.8278	1E-5
9.415023E+2	20.9927	20.9934	-0.6672	1E-5
9.037171E+2	21.9919	21.9921	-0.1839	1E-5
8.689945E+2	22.9919	22.9911	0.7852	1E-5
8.378299E+2	23.9653	23.9622	3.1280	1E-5
8.081572E+2	24.9627	24.9598	2.9101	1E-5
7.805519E+2	25.9624	25.9590	3.3684	1E-5
7.545844E+2	26.9729	26.9684	4.5291	1E-5
7.303647E+2	27.9806	27.9767	3.8518	1E-5
7.077527E+2	28.9848	28.9824	2.3651	1E-5
5.816699E+2	36.0589	36.0585	0.3567	1E-5
5.331300E+2	39.6807	39.6870	-6.3435	1E-5
4.115520E+2	52.5192	52.5343	-15.0811	1E-5
3.564572E+2	61.2144	61.2200	-5.6383	1E-5
3.134593E+2	70.0936	70.0906	3.0477	1E-5
2.758167E+2	80.0929	80.0823	10.6457	1E-4
2.433383E+2	91.1375	91.1207	16.7738	1E-4
2.218227E+2	100.1656	100.1521	13.5361	1E-4
2.008462E+2	110.7407	110.7410	-0.3103	1E-4
1.865614E+2	119.2373	119.2490	-11.6807	1E-4
1.727248E+2	128.7443	128.7605	-16.2050	1E-4
1.610018E+2	138.0165	138.0275	-10.9770	1E-4
1.499069E+2	148.0454	148.0589	-13.5459	1E-4
1.405993E+2	157.6221	157.6317	-9.5631	1E-4
1.325733E+2	166.9235	166.9153	8.2461	1E-4
1.253606E+2	176.2441	176.2328	11.3362	1E-4
1.179422E+2	186.9874	186.9697	17.7424	1E-4
1.119289E+2	196.7096	196.6974	12.1806	1E-4
1.080113E+2	203.6192	203.6123	6.9307	1E-4
1.031063E+2	213.0223	213.0103	12.0008	1E-4
9.423639E+1	232.4944	232.5138	-19.4372	1E-4
8.974066E+1	243.8873	243.9005	-13.1931	1E-4
8.622974E+1	253.6211	253.6419	-20.8309	1E-4
8.090331E+1	270.0908	270.0988	-8.0379	1E-4
7.533257E+1	289.9924	289.9622	30.2178	1E-4
7.289384E+1	299.7458	299.7185	27.3359	1E-4
7.035879E+1	310.6773	310.7069	-29.5922	1E-4
