**Manufacturer reference [X139110] 
=> Used on CM04 [TT06]**


Thermometre :	CX_LS_X139110
Environment :	VA
Date :	06/02/2020
Function :	 logT = Sum ( Ai / logR^i )
Coefficients :	
A0=	584.433877027690980E+0
A1=	-6.625253138996424E+3
A2=	12.140137403439239E+3
A3=	182.887771603339610E+3
A4=	-1.424900623424178E+6
A5=	4.942568340996065E+6
A6=	-9.867488863989944E+6
A7=	11.711487493789595E+6
A8=	-7.717042510962091E+6
A9=	2.183016035204805E+6
Rmes(Ohm)	Tmes(K)	Tfit(K)	dT(mK)	Courant(A)
1.146757E+3	9.9296	9.9323	-2.7168	1E-5
1.058987E+3	10.9378	10.9349	2.8514	1E-5
9.872972E+2	11.9296	11.9271	2.5031	1E-5
9.266311E+2	12.9219	12.9202	1.7448	1E-5
8.744193E+2	13.9138	13.9133	0.4735	1E-5
8.289582E+2	14.9028	14.9039	-1.0786	1E-5
7.848730E+2	15.9953	15.9978	-2.5062	1E-5
7.490235E+2	16.9982	17.0013	-3.0884	1E-5
7.169236E+2	17.9983	18.0007	-2.4154	1E-5
6.879547E+2	18.9941	18.9965	-2.3940	1E-5
6.614661E+2	19.9925	19.9956	-3.1014	1E-5
6.372193E+2	20.9928	20.9939	-1.0877	1E-5
6.148910E+2	21.9922	21.9926	-0.3946	1E-5
5.942440E+2	22.9925	22.9917	0.8186	1E-5
5.756121E+2	23.9646	23.9624	2.2084	1E-5
5.577741E+2	24.9632	24.9596	3.6154	1E-5
5.410709E+2	25.9635	25.9595	3.9983	1E-5
5.252758E+2	26.9738	26.9696	4.1695	1E-5
5.104906E+2	27.9812	27.9774	3.8231	1E-5
4.966191E+2	28.9854	28.9825	2.9223	1E-5
4.178904E+2	36.0647	36.0645	0.2183	1E-5
3.869746E+2	39.6857	39.6926	-6.8531	1E-5
3.077085E+2	52.5220	52.5370	-15.0079	1E-5
2.707801E+2	61.2190	61.2241	-5.1010	1E-5
2.414404E+2	70.1047	70.1016	3.0633	1E-5
2.153034E+2	80.1321	80.1211	10.9717	1E-4
1.924902E+2	91.1687	91.1507	17.9672	1E-4
1.771835E+2	100.1828	100.1700	12.8198	1E-4
1.620710E+2	110.7553	110.7572	-1.9318	1E-4
1.516693E+2	119.2545	119.2683	-13.8006	1E-4
1.415096E+2	128.7641	128.7802	-16.0574	1E-4
1.328324E+2	138.0335	138.0440	-10.4851	1E-4
1.245530E+2	148.0623	148.0740	-11.7080	1E-4
1.175553E+2	157.6378	157.6457	-7.8622	1E-4
1.114843E+2	166.9355	166.9234	12.0598	1E-4
1.059869E+2	176.2544	176.2504	4.0023	1E-4
1.003100E+2	186.9972	186.9776	19.5977	1E-4
9.567984E+1	196.7149	196.7013	13.5785	1E-4
9.265606E+1	203.6069	203.5997	7.1789	1E-4
8.884682E+1	213.0071	212.9955	11.5551	1E-4
8.191252E+1	232.4791	232.5001	-20.9595	1E-4
7.837601E+1	243.8702	243.8845	-14.2617	1E-4
7.560376E+1	253.5998	253.6213	-21.4788	1E-4
7.138004E+1	270.0586	270.0646	-6.0409	1E-4
6.693619E+1	289.9496	289.9176	31.9569	1E-4
6.498265E+1	299.6976	299.6710	26.6023	1E-4
6.294241E+1	310.6538	310.6842	-30.3871	1E-4
