**Manufacturer reference [X138366] 
=> Used on CM09 [TT09]**


Thermometre :	CX_LS_X138366
Environment :	VA
Date :	06/02/2020
Function :	 logT = Sum ( Ai / logR^i )
Coefficients :	
A0=	1.172647408410550E+3
A1=	-17.496121197657681E+3
A2=	103.294822919703660E+3
A3=	-274.452814533789760E+3
A4=	90.963600292778836E+3
A5=	1.504285031861605E+6
A6=	-4.550322694613231E+6
A7=	6.333608895678218E+6
A8=	-4.507142923862156E+6
A9=	1.326022244731299E+6
Rmes(Ohm)	Tmes(K)	Tfit(K)	dT(mK)	Courant(A)
8.949689E+2	9.9295	9.9325	-3.0444	1E-5
8.309652E+2	10.9377	10.9347	2.9761	1E-5
7.783077E+2	11.9297	11.9266	3.0504	1E-5
7.334543E+2	12.9218	12.9200	1.7640	1E-5
6.946572E+2	13.9137	13.9133	0.4326	1E-5
6.607324E+2	14.9028	14.9033	-0.5425	1E-5
6.277065E+2	15.9954	15.9959	-0.5321	1E-5
6.006104E+2	16.9977	17.0031	-5.3652	1E-5
5.763628E+2	17.9970	18.0021	-5.0530	1E-5
5.544222E+2	18.9941	18.9966	-2.5040	1E-5
5.342852E+2	19.9923	19.9950	-2.6919	1E-5
5.157715E+2	20.9926	20.9940	-1.4135	1E-5
4.987079E+2	21.9917	21.9916	0.1331	1E-5
4.828707E+2	22.9916	22.9906	1.0331	1E-5
4.685376E+2	23.9657	23.9617	4.0114	1E-5
4.547857E+2	24.9624	24.9592	3.1963	1E-5
4.418994E+2	25.9616	25.9579	3.6586	1E-5
4.296710E+2	26.9723	26.9683	4.0426	1E-5
4.182066E+2	27.9802	27.9757	4.4642	1E-5
4.074254E+2	28.9843	28.9810	3.2961	1E-5
3.459159E+2	36.0549	36.0540	0.8761	1E-5
3.215224E+2	39.6772	39.6835	-6.3413	1E-5
2.584225E+2	52.5173	52.5347	-17.3529	1E-5
2.287463E+2	61.2112	61.2188	-7.6388	1E-5
2.050324E+2	70.0859	70.0828	3.1218	1E-5
1.838329E+2	80.0662	80.0525	13.7483	1E-4
1.650903E+2	91.1164	91.0977	18.7213	1E-4
1.524407E+2	100.1540	100.1393	14.6640	1E-4
1.399231E+2	110.7305	110.7316	-1.1079	1E-4
1.312808E+2	119.2253	119.2384	-13.0759	1E-4
1.228066E+2	128.7308	128.7490	-18.1930	1E-4
1.155412E+2	138.0051	138.0162	-11.1207	1E-4
1.085895E+2	148.0339	148.0466	-12.7485	1E-4
1.026964E+2	157.6114	157.6192	-7.8029	1E-4
9.756266E+1	166.9150	166.9127	2.2607	1E-4
9.291551E+1	176.2369	176.2307	6.2494	1E-4
8.810049E+1	186.9808	186.9575	23.2769	1E-4
8.416154E+1	196.7061	196.6884	17.7022	1E-4
8.157607E+1	203.6275	203.6162	11.2839	1E-4
7.832556E+1	213.0329	213.0196	13.2625	1E-4
7.239688E+1	232.5048	232.5269	-22.0806	1E-4
6.936391E+1	243.8989	243.9172	-18.2773	1E-4
6.698188E+1	253.6360	253.6610	-24.9596	1E-4
6.334443E+1	270.1127	270.1218	-9.1284	1E-4
5.951021E+1	290.0215	289.9846	36.8849	1E-4
5.782118E+1	299.7785	299.7457	32.8064	1E-4
5.606137E+1	310.6932	310.7292	-35.9577	1E-4
