**Manufacturer reference [X133178] 
=> Used on CM09 [TT07]**


Thermometre :	CX_LS_X133178
Environment :	VA
Date :	22/03/2019
Function :	 logT = Sum ( Ai / logR^i )
Coefficients :	
A0=	280.048970906030770E+0
A1=	510.054010440917240E+0
A2=	-57.165898986951695E+3
A3=	554.906455979907420E+3
A4=	-2.649740912361577E+6
A5=	7.510815964051330E+6
A6=	-13.282385384680443E+6
A7=	14.454969723923506E+6
A8=	-8.892832726522928E+6
A9=	2.373915003343715E+6
Rmes(Ohm)	Tmes(K)	Tfit(K)	dT(mK)	Courant(A)
8.925266E+2	9.9294	9.9324	-3.0185	1E-5
8.275399E+2	10.9365	10.9340	2.4770	1E-5
7.742200E+2	11.9295	11.9257	3.8212	1E-5
7.289046E+2	12.9214	12.9191	2.2894	1E-5
6.897319E+2	13.9141	13.9141	0.0151	1E-5
6.555135E+2	14.9064	14.9070	-0.6428	1E-5
6.221611E+2	16.0035	16.0066	-3.1216	1E-5
5.952085E+2	17.0027	17.0064	-3.7063	1E-5
5.709242E+2	18.0019	18.0057	-3.8427	1E-5
5.489055E+2	19.0010	19.0039	-2.9499	1E-5
5.288192E+2	19.9992	20.0010	-1.8138	1E-5
5.103409E+2	20.9983	21.0001	-1.8303	1E-5
4.933679E+2	21.9955	21.9951	0.4329	1E-5
4.775727E+2	22.9951	22.9947	0.3504	1E-5
4.629578E+2	23.9929	23.9898	3.1235	1E-5
4.492455E+2	24.9938	24.9908	3.0471	1E-5
4.370755E+2	25.9419	25.9390	2.9022	1E-5
4.247192E+2	26.9693	26.9647	4.6435	1E-5
4.132709E+2	27.9805	27.9765	3.9562	1E-5
4.026239E+2	28.9784	28.9754	2.9685	1E-5
3.668905E+2	32.8044	32.8009	3.4566	1E-5
3.297242E+2	37.7525	37.7539	-1.3581	1E-5
2.760528E+2	47.4699	47.4857	-15.8289	1E-5
2.382727E+2	57.1697	57.1846	-14.9297	1E-5
2.052558E+2	68.8010	68.7984	2.5757	1E-5
1.787999E+2	81.4110	81.3964	14.5530	1E-4
1.620630E+2	91.6193	91.5975	21.8109	1E-4
1.498292E+2	100.5583	100.5493	9.0433	1E-4
1.378122E+2	110.9317	110.9298	1.8912	1E-4
1.287717E+2	120.0294	120.0370	-7.6316	1E-4
1.207598E+2	129.2429	129.2581	-15.2484	1E-4
1.135573E+2	138.6410	138.6644	-23.4024	1E-4
1.065226E+2	149.0697	149.0862	-16.4807	1E-4
1.011546E+2	158.0157	158.0230	-7.2954	1E-4
9.599163E+1	167.5816	167.5773	4.2842	1E-4
9.118067E+1	177.4884	177.4803	8.0622	1E-4
8.642222E+1	188.4251	188.4030	22.0815	1E-4
8.339099E+1	196.0688	196.0447	24.1060	1E-4
7.998895E+1	205.3736	205.3549	18.6674	1E-4
7.667465E+1	215.2820	215.2786	3.4219	1E-4
7.109015E+1	234.2654	234.2777	-12.3214	1E-4
6.807748E+1	245.9219	245.9482	-26.3263	1E-4
6.563127E+1	256.2589	256.2968	-37.9148	1E-4
6.236617E+1	271.5267	271.5309	-4.1906	1E-4
5.869105E+1	291.0845	291.0417	42.8308	1E-4
5.706014E+1	300.7403	300.6966	43.7269	1E-4
5.542382E+1	311.1077	311.1544	-46.7113	1E-4
