**Manufacturer reference [X134426] 
=> Used on CM02 [TT09]**


Thermometre :	CX_LS_X134426
Environment :	VA
Date :	02/07/2019
Function :	 logT = Sum ( Ai / logR^i )
Coefficients :	
A0=	-668.042579918658360E+0
A1=	19.406852812477628E+3
A2=	-234.812593495119010E+3
A3=	1.584948328941419E+6
A4=	-6.654781626123018E+6
A5=	18.163473622978698E+6
A6=	-32.390598914286043E+6
A7=	36.519460138704740E+6
A8=	-23.681661679168947E+6
A9=	6.742157309070970E+6
Rmes(Ohm)	Tmes(K)	Tfit(K)	dT(mK)	Courant(A)
2.198705E+3	9.9283	9.9302	-1.8943	1E-5
2.000914E+3	10.9358	10.9329	2.8756	1E-5
1.710423E+3	12.9184	12.9164	1.9677	1E-5
1.598233E+3	13.9106	13.9108	-0.2048	1E-5
1.501635E+3	14.9031	14.9048	-1.7392	1E-5
1.335350E+3	17.0003	17.0028	-2.5108	1E-5
1.210998E+3	18.9959	18.9978	-1.9169	1E-5
1.157818E+3	19.9939	19.9963	-2.4169	1E-5
1.065435E+3	21.9915	21.9914	0.1016	1E-5
9.877609E+2	23.9860	23.9834	2.6266	1E-5
9.211176E+2	25.9863	25.9809	5.4221	1E-5
6.694154E+2	37.3542	37.3528	1.3538	1E-5
6.675741E+2	37.4718	37.4690	2.7852	1E-5
6.658514E+2	37.5789	37.5783	0.5996	1E-5
6.641063E+2	37.6909	37.6896	1.2975	1E-5
4.898372E+2	52.8996	52.9137	-14.1404	1E-5
4.309292E+2	60.8872	60.8980	-10.7950	1E-5
3.799095E+2	69.8301	69.8310	-0.9430	1E-5
3.343317E+2	80.1300	80.1188	11.2049	1E-4
2.966013E+2	91.0238	91.0060	17.7901	1E-4
2.714527E+2	99.9226	99.9113	11.2846	1E-4
2.466349E+2	110.4306	110.4267	3.9309	1E-4
2.292567E+2	119.0893	119.0927	-3.3761	1E-4
2.134194E+2	128.1508	128.1629	-12.1046	1E-4
1.992546E+2	137.4180	137.4344	-16.4330	1E-4
1.859825E+2	147.3151	147.3343	-19.2237	1E-4
1.744228E+2	157.1102	157.1188	-8.6102	1E-4
1.645735E+2	166.4828	166.4856	-2.8353	1E-4
1.552997E+2	176.3445	176.3428	1.7375	1E-4
1.477848E+2	185.2218	185.2040	17.8005	1E-4
1.415608E+2	193.2607	193.2345	26.1925	1E-4
1.348557E+2	202.7178	202.6974	20.4074	1E-4
1.288763E+2	211.9715	211.9552	16.3423	1E-4
1.197888E+2	227.7691	227.7849	-15.7889	1E-4
1.157977E+2	235.5049	235.5229	-17.9951	1E-4
1.081489E+2	251.9192	251.9594	-40.1533	1E-4
1.035940E+2	262.9034	262.9146	-11.2242	1E-4
9.752582E+1	279.1526	279.1401	12.4860	1E-4
9.528209E+1	285.7161	285.6868	29.3095	1E-4
9.175587E+1	296.6964	296.6759	20.5246	1E-4
8.771846E+1	310.4744	310.4981	-23.7485	1E-4
