**Manufacturer reference [X134427] 
=> Used on CM02 [TT12]**


Thermometre :	CX_LS_X134427
Environment :	VA
Date :	02/07/2019
Function :	 logT = Sum ( Ai / logR^i )
Coefficients :	
A0=	-646.007008988688880E+0
A1=	18.911238151133864E+3
A2=	-229.602108878473020E+3
A3=	1.551731018571448E+6
A4=	-6.515400950685966E+6
A5=	17.769587463144317E+6
A6=	-31.648148167903684E+6
A7=	35.624845320009023E+6
A8=	-23.058555277458891E+6
A9=	6.551353189566221E+6
Rmes(Ohm)	Tmes(K)	Tfit(K)	dT(mK)	Courant(A)
2.140422E+3	9.9283	9.9302	-1.9440	1E-5
1.949192E+3	10.9358	10.9328	2.9861	1E-5
1.667979E+3	12.9184	12.9165	1.8948	1E-5
1.559288E+3	13.9106	13.9108	-0.2208	1E-5
1.465656E+3	14.9031	14.9048	-1.6536	1E-5
1.304329E+3	17.0003	17.0029	-2.6358	1E-5
1.183594E+3	18.9959	18.9980	-2.0509	1E-5
1.131940E+3	19.9939	19.9963	-2.3855	1E-5
1.042152E+3	21.9915	21.9913	0.2273	1E-5
9.666071E+2	23.9861	23.9833	2.7678	1E-5
9.017597E+2	25.9863	25.9808	5.5157	1E-5
6.564880E+2	37.3548	37.3536	1.1806	1E-5
6.546940E+2	37.4723	37.4696	2.6564	1E-5
6.530141E+2	37.5794	37.5789	0.5148	1E-5
6.513107E+2	37.6915	37.6902	1.2510	1E-5
4.811377E+2	52.8999	52.9140	-14.0767	1E-5
4.235319E+2	60.8876	60.8980	-10.4142	1E-5
3.735953E+2	69.8316	69.8322	-0.5819	1E-5
3.289508E+2	80.1330	80.1222	10.8122	1E-4
2.919826E+2	91.0250	91.0077	17.2916	1E-4
2.673258E+2	99.9238	99.9125	11.2610	1E-4
2.429805E+2	110.4321	110.4281	3.9613	1E-4
2.259282E+2	119.0903	119.0934	-3.0703	1E-4
2.103809E+2	128.1517	128.1638	-12.1080	1E-4
1.964711E+2	137.4190	137.4355	-16.5331	1E-4
1.834347E+2	147.3159	147.3350	-19.0866	1E-4
1.720766E+2	157.1109	157.1192	-8.3262	1E-4
1.623960E+2	166.4834	166.4862	-2.7788	1E-4
1.532785E+2	176.3450	176.3436	1.3834	1E-4
1.458923E+2	185.2183	185.2003	17.9713	1E-4
1.397706E+2	193.2575	193.2305	26.9933	1E-4
1.331728E+2	202.7147	202.6954	19.3169	1E-4
1.272896E+2	211.9682	211.9525	15.6566	1E-4
1.183464E+2	227.7649	227.7808	-15.9400	1E-4
1.144180E+2	235.5010	235.5179	-16.9165	1E-4
1.068869E+2	251.9147	251.9552	-40.4883	1E-4
1.024019E+2	262.8996	262.9098	-10.2009	1E-4
9.642529E+1	279.1479	279.1364	11.4621	1E-4
9.421548E+1	285.7121	285.6827	29.4412	1E-4
9.074200E+1	296.6920	296.6716	20.4038	1E-4
8.676391E+1	310.4711	310.4947	-23.5560	1E-4
