**Manufacturer reference [X133970] 
=> Used on CM02 [TT05]**


Thermometre :	CX_LS_X133970
Environment :	VA
Date :	02/07/2019
Function :	 logT = Sum ( Ai / logR^i )
Coefficients :	
A0=	2.768003975937141E+3
A1=	-46.225347634897589E+3
A2=	331.404325645390550E+3
A3=	-1.322362255320845E+6
A4=	3.158812188546379E+6
A5=	-4.426565701665613E+6
A6=	3.012568926054786E+6
A7=	208.749719786442060E+3
A8=	-1.654495922683278E+6
A9=	745.537855407260820E+3
Rmes(Ohm)	Tmes(K)	Tfit(K)	dT(mK)	Courant(A)
7.858458E+2	9.9283	9.9311	-2.7665	1E-5
7.340867E+2	10.9358	10.9318	3.9860	1E-5
6.546282E+2	12.9184	12.9155	2.9283	1E-5
6.227027E+2	13.9105	13.9105	0.0470	1E-5
5.945898E+2	14.9031	14.9051	-2.0489	1E-5
5.446980E+2	17.0002	17.0043	-4.0701	1E-5
5.060088E+2	18.9958	18.9994	-3.6275	1E-5
4.890822E+2	19.9938	19.9965	-2.6592	1E-5
4.590072E+2	21.9915	21.9911	0.3789	1E-5
4.330551E+2	23.9859	23.9823	3.5515	1E-5
4.102555E+2	25.9862	25.9794	6.8316	1E-5
3.189922E+2	37.3519	37.3499	1.9905	1E-5
3.182875E+2	37.4700	37.4666	3.4401	1E-5
3.176306E+2	37.5769	37.5758	1.0843	1E-5
3.169647E+2	37.6888	37.6871	1.7183	1E-5
2.477094E+2	52.8985	52.9153	-16.8253	1E-5
2.229318E+2	60.8859	60.8989	-13.0393	1E-5
2.008191E+2	69.8257	69.8270	-1.2841	1E-5
1.804837E+2	80.1213	80.1086	12.7411	1E-4
1.631693E+2	91.0196	91.0008	18.7751	1E-4
1.513764E+2	99.9188	99.9072	11.6153	1E-4
1.395207E+2	110.4264	110.4215	4.8833	1E-4
1.310783E+2	119.0857	119.0869	-1.1853	1E-4
1.232765E+2	128.1476	128.1569	-9.2633	1E-4
1.162010E+2	137.4148	137.4362	-21.3953	1E-4
1.094959E+2	147.3121	147.3341	-21.9845	1E-4
1.035872E+2	157.1076	157.1174	-9.7539	1E-4
9.850055E+1	166.4808	166.4832	-2.3775	1E-4
9.366514E+1	176.3430	176.3404	2.5576	1E-4
8.970854E+1	185.2340	185.2134	20.5921	1E-4
8.641271E+1	193.2722	193.2442	28.0077	1E-4
8.283677E+1	202.7286	202.7102	18.4000	1E-4
7.962575E+1	211.9832	211.9717	11.5212	1E-4
7.470850E+1	227.7813	227.7942	-12.9147	1E-4
7.253118E+1	235.5184	235.5336	-15.1721	1E-4
6.832939E+1	251.9320	251.9735	-41.5232	1E-4
6.580938E+1	262.9167	262.9280	-11.2760	1E-4
6.242974E+1	279.1667	279.1541	12.6078	1E-4
6.117368E+1	285.7303	285.7010	29.3201	1E-4
5.919254E+1	296.7095	296.6906	18.9216	1E-4
5.691402E+1	310.4859	310.5086	-22.7401	1E-4
