**Manufacturer reference [X138368] 
=> Used on CM09 [TT12]**


Thermometre :	CX_LS_X138368
Environment :	VA
Date :	06/02/2020
Function :	 logT = Sum ( Ai / logR^i )
Coefficients :	
A0=	421.684465914509810E+0
A1=	-5.819741510969016E+3
A2=	25.321590295402260E+3
A3=	18.991634811191176E+3
A4=	-599.044584470925390E+3
A5=	2.582239665087215E+6
A6=	-5.744896553861989E+6
A7=	7.339450169726939E+6
A8=	-5.124890350227059E+6
A9=	1.523260850627934E+6
Rmes(Ohm)	Tmes(K)	Tfit(K)	dT(mK)	Courant(A)
1.747817E+3	9.9295	9.9325	-2.9788	1E-5
1.595616E+3	10.9377	10.9347	2.9724	1E-5
1.472659E+3	11.9297	11.9267	2.9714	1E-5
1.369637E+3	12.9218	12.9201	1.7117	1E-5
1.281929E+3	13.9137	13.9123	1.4341	1E-5
1.206006E+3	14.9028	14.9049	-2.1308	1E-5
1.133286E+3	15.9954	15.9972	-1.7908	1E-5
1.074465E+3	16.9977	17.0020	-4.2828	1E-5
1.022248E+3	17.9971	18.0015	-4.3855	1E-5
9.755032E+2	18.9941	18.9961	-1.9675	1E-5
9.329943E+2	19.9923	19.9949	-2.5963	1E-5
8.942939E+2	20.9926	20.9936	-1.0258	1E-5
8.589138E+2	21.9917	21.9913	0.3762	1E-5
8.263410E+2	22.9916	22.9905	1.0632	1E-5
7.970732E+2	23.9656	23.9623	3.2713	1E-5
7.692424E+2	24.9625	24.9588	3.6520	1E-5
7.433097E+2	25.9618	25.9580	3.8171	1E-5
7.188832E+2	26.9724	26.9680	4.3537	1E-5
6.961041E+2	27.9803	27.9765	3.7839	1E-5
6.748374E+2	28.9844	28.9818	2.6228	1E-5
5.560348E+2	36.0558	36.0557	0.1051	1E-5
5.101749E+2	39.6779	39.6848	-6.9071	1E-5
3.950403E+2	52.5177	52.5336	-15.9081	1E-5
3.427325E+2	61.2119	61.2180	-6.0575	1E-5
3.018480E+2	70.0877	70.0840	3.7264	1E-5
2.660285E+2	80.0725	80.0599	12.6208	1E-4
2.350069E+2	91.1210	91.1044	16.5638	1E-4
2.144266E+2	100.1565	100.1435	12.9635	1E-4
1.943552E+2	110.7328	110.7340	-1.1615	1E-4
1.806777E+2	119.2279	119.2397	-11.8296	1E-4
1.674151E+2	128.7340	128.7500	-15.9530	1E-4
1.561656E+2	138.0076	138.0178	-10.2021	1E-4
1.455100E+2	148.0364	148.0500	-13.6308	1E-4
1.365625E+2	157.6137	157.6250	-11.3194	1E-4
1.288432E+2	166.9169	166.9091	7.7772	1E-4
1.219019E+2	176.2386	176.2272	11.4070	1E-4
1.147590E+2	186.9822	186.9641	18.1331	1E-4
1.089650E+2	196.7069	196.6937	13.2376	1E-4
1.051850E+2	203.6257	203.6173	8.4104	1E-4
1.004557E+2	213.0306	213.0179	12.6652	1E-4
9.190140E+1	232.5025	232.5220	-19.4884	1E-4
8.756279E+1	243.8961	243.9105	-14.4466	1E-4
8.417299E+1	253.6325	253.6550	-22.5091	1E-4
7.902819E+1	270.1079	270.1177	-9.8036	1E-4
7.364667E+1	290.0151	289.9818	33.3399	1E-4
7.128956E+1	299.7708	299.7414	29.4348	1E-4
6.884202E+1	310.6897	310.7218	-32.0544	1E-4
