**Manufacturer reference [X134429] 
=> Used on CM14 [TT07]**


Thermometre :	CX_LS_X134429
Environment :	VA
Date :	02/07/2019
Function :	 logT = Sum ( Ai / logR^i )
Coefficients :	
A0=	-586.967502798464010E+0
A1=	17.596462313751232E+3
A2=	-216.333257159682860E+3
A3=	1.472308438213740E+6
A4=	-6.205962669873472E+6
A5=	16.959325435587980E+6
A6=	-30.227850817293242E+6
A7=	34.023017814556360E+6
A8=	-22.006515232962415E+6
A9=	6.245354885747392E+6
Rmes(Ohm)	Tmes(K)	Tfit(K)	dT(mK)	Courant(A)
2.071066E+3	9.9283	9.9302	-1.9429	1E-5
1.887446E+3	10.9358	10.9329	2.9481	1E-5
1.617115E+3	12.9185	12.9165	2.0158	1E-5
1.512503E+3	13.9106	13.9109	-0.2632	1E-5
1.422336E+3	14.9031	14.9048	-1.6690	1E-5
1.266843E+3	17.0003	17.0029	-2.6308	1E-5
1.150353E+3	18.9960	18.9980	-1.9854	1E-5
1.100474E+3	19.9940	19.9965	-2.5202	1E-5
1.013744E+3	21.9916	21.9914	0.1780	1E-5
9.407170E+2	23.9862	23.9835	2.6775	1E-5
8.779994E+2	25.9864	25.9808	5.6078	1E-5
6.403925E+2	37.3563	37.3550	1.3202	1E-5
6.386550E+2	37.4735	37.4708	2.6535	1E-5
6.370273E+2	37.5807	37.5800	0.7156	1E-5
6.353730E+2	37.6928	37.6915	1.3014	1E-5
4.701640E+2	52.9007	52.9151	-14.3574	1E-5
4.141555E+2	60.8884	60.8991	-10.6734	1E-5
3.655562E+2	69.8341	69.8349	-0.8163	1E-5
3.220731E+2	80.1379	80.1273	10.5676	1E-4
2.860588E+2	91.0276	91.0094	18.1537	1E-4
2.620150E+2	99.9262	99.9143	11.9172	1E-4
2.382610E+2	110.4348	110.4307	4.1100	1E-4
2.216169E+2	119.0925	119.0958	-3.2878	1E-4
2.064355E+2	128.1537	128.1665	-12.7805	1E-4
1.928497E+2	137.4208	137.4376	-16.7712	1E-4
1.801117E+2	147.3178	147.3373	-19.4598	1E-4
1.690110E+2	157.1125	157.1211	-8.6358	1E-4
1.595474E+2	166.4847	166.4876	-2.9258	1E-4
1.506327E+2	176.3460	176.3439	2.1357	1E-4
1.434144E+2	185.2108	185.1927	18.1029	1E-4
1.374249E+2	193.2504	193.2232	27.1750	1E-4
1.309685E+2	202.7081	202.6884	19.7320	1E-4
1.252106E+2	211.9610	211.9453	15.7360	1E-4
1.164564E+2	227.7569	227.7718	-14.8739	1E-4
1.126087E+2	235.4926	235.5110	-18.3658	1E-4
1.052334E+2	251.9064	251.9472	-40.8233	1E-4
1.008399E+2	262.8914	262.9023	-10.8926	1E-4
9.498510E+1	279.1398	279.1278	11.9839	1E-4
9.281990E+1	285.7033	285.6744	28.9002	1E-4
8.941717E+1	296.6838	296.6616	22.2327	1E-4
8.551839E+1	310.4639	310.4884	-24.5069	1E-4
