**Manufacturer reference [X133078] 
=> Used on CM14 [TT09]**


Thermometre :	CX_LS_X133078
Environment :	VA
Date :	25/01/2019
Function :	 logT = Sum ( Ai / logR^i )
Coefficients :	
A0=	842.699203122384460E+0
A1=	-10.085274776648817E+3
A2=	33.814232379306806E+3
A3=	87.306266409419986E+3
A4=	-1.069009066671517E+6
A5=	3.882935994569398E+6
A6=	-7.660065421089582E+6
A7=	8.810736660143876E+6
A8=	-5.576877974528813E+6
A9=	1.508292135384117E+6
Rmes(Ohm)	Tmes(K)	Tfit(K)	dT(mK)	Courant(A)
7.332042E+2	9.9339	9.9372	-3.3274	1E-5
6.822996E+2	10.9393	10.9365	2.7899	1E-5
6.402974E+2	11.9317	11.9275	4.2100	1E-5
6.044143E+2	12.9239	12.9221	1.7858	1E-5
5.734344E+2	13.9154	13.9138	1.5602	1E-5
5.460969E+2	14.9089	14.9109	-1.9631	1E-5
5.196312E+2	16.0016	16.0044	-2.8045	1E-5
4.980455E+2	17.0007	17.0051	-4.4054	1E-5
4.785789E+2	17.9999	18.0041	-4.1972	1E-5
4.609100E+2	18.9978	19.0009	-3.0608	1E-5
4.447397E+2	19.9950	19.9977	-2.6986	1E-5
4.298602E+2	20.9935	20.9949	-1.4437	1E-5
4.159931E+2	22.0009	22.0012	-0.2666	1E-5
4.034190E+2	22.9854	22.9845	0.8902	1E-5
3.913910E+2	23.9968	23.9948	2.0430	1E-5
3.804092E+2	24.9868	24.9824	4.4430	1E-5
3.698354E+2	26.0035	25.9976	5.8581	1E-5
3.602842E+2	26.9797	26.9739	5.8141	1E-5
3.508178E+2	28.0079	28.0017	6.2043	1E-5
2.854661E+2	37.2362	37.2355	0.7486	1E-5
2.848458E+2	37.3472	37.3459	1.2939	1E-5
2.769472E+2	38.7970	38.8003	-3.2653	1E-5
2.763085E+2	38.9200	38.9219	-1.8820	1E-5
2.194443E+2	52.8929	52.9070	-14.1027	1E-5
2.191837E+2	52.9767	52.9894	-12.7287	1E-5
1.957647E+2	61.3693	61.3738	-4.4692	1E-5
1.748685E+2	70.9282	70.9197	8.4779	1E-5
1.568122E+2	81.4030	81.3813	21.7306	1E-4
1.319440E+2	100.8152	100.7958	19.3609	1E-4
1.212701E+2	111.6930	111.6897	3.2995	1E-4
1.137970E+2	120.5671	120.5723	-5.1971	1E-4
1.069415E+2	129.8266	129.8396	-12.9681	1E-4
1.008352E+2	139.1526	139.1775	-24.9258	1E-4
9.411886E+1	150.8588	150.8778	-19.0151	1E-4
8.981757E+1	159.3041	159.3137	-9.6271	1E-4
8.167073E+1	177.8332	177.8199	13.2545	1E-4
7.680172E+1	190.8805	190.8570	23.5388	1E-4
7.419187E+1	198.6247	198.5993	25.4001	1E-4
7.116131E+1	208.3826	208.3622	20.3675	1E-4
6.835948E+1	218.2377	218.2316	6.0521	1E-4
6.338430E+1	238.1287	238.1453	-16.6076	1E-4
6.083211E+1	249.7411	249.7781	-37.0216	1E-4
5.937896E+1	256.8792	256.9063	-27.1421	1E-4
5.666202E+1	271.3426	271.3585	-15.8837	1E-4
5.522127E+1	279.6934	279.6960	-2.5704	1E-4
5.350455E+1	290.3696	290.3382	31.4244	1E-4
5.257584E+1	296.5123	296.4577	54.5881	1E-4
5.209163E+1	299.7794	299.7604	19.0137	1E-4
5.053716E+1	310.8940	310.9466	-52.5933	1E-4
