**Manufacturer reference [X134478] 
=> Used on CM14 [TT05]**


Thermometre :	CX_LS_X134478
Environment :	VA
Date :	02/07/2019
Function :	 logT = Sum ( Ai / logR^i )
Coefficients :	
A0=	-699.371376925861230E+0
A1=	20.209231919931226E+3
A2=	-242.147713931675330E+3
A3=	1.615039131341481E+6
A4=	-6.692420212326220E+6
A5=	18.013958396157484E+6
A6=	-31.665282074475683E+6
A7=	35.180719835333958E+6
A8=	-22.475761000876982E+6
A9=	6.303161099338965E+6
Rmes(Ohm)	Tmes(K)	Tfit(K)	dT(mK)	Courant(A)
1.887656E+3	9.9284	9.9303	-1.8999	1E-5
1.724055E+3	10.9359	10.9330	2.8842	1E-5
1.482377E+3	12.9186	12.9167	1.9050	1E-5
1.388578E+3	13.9108	13.9109	-0.1063	1E-5
1.307582E+3	14.9030	14.9047	-1.7167	1E-5
1.167546E+3	17.0006	17.0031	-2.5217	1E-5
1.062334E+3	18.9965	18.9986	-2.0743	1E-5
1.017204E+3	19.9947	19.9972	-2.5453	1E-5
9.386368E+2	21.9919	21.9915	0.3776	1E-5
8.722992E+2	23.9871	23.9845	2.5948	1E-5
8.152581E+2	25.9870	25.9814	5.5613	1E-5
5.978898E+2	37.3742	37.3728	1.4102	1E-5
5.963336E+2	37.4877	37.4860	1.7174	1E-5
5.948364E+2	37.5962	37.5955	0.7338	1E-5
5.933178E+2	37.7089	37.7071	1.7975	1E-5
4.413689E+2	52.9095	52.9242	-14.6610	1E-5
3.895831E+2	60.8987	60.9081	-9.4317	1E-5
3.444298E+2	69.8681	69.8681	-0.0081	1E-5
3.039305E+2	80.2065	80.1970	9.5068	1E-4
2.705442E+2	91.0602	91.0425	17.7221	1E-4
2.481380E+2	99.9556	99.9437	11.8507	1E-4
2.259455E+2	110.4694	110.4665	2.8516	1E-4
2.103965E+2	119.1204	119.1241	-3.6780	1E-4
1.961866E+2	128.1789	128.1929	-13.9669	1E-4
1.834564E+2	137.4455	137.4612	-15.7282	1E-4
1.715059E+2	147.3411	147.3591	-17.9646	1E-4
1.610830E+2	157.1327	157.1386	-5.8913	1E-4
1.521903E+2	166.5004	166.4990	1.3569	1E-4
1.438028E+2	176.3582	176.3526	5.5913	1E-4
1.370753E+2	185.1152	185.1046	10.5516	1E-4
1.314225E+2	193.1604	193.1389	21.4936	1E-4
1.253252E+2	202.6236	202.6096	14.0338	1E-4
1.198938E+2	211.8697	211.8558	13.8764	1E-4
1.116333E+2	227.6568	227.6558	0.9665	1E-4
1.079892E+2	235.3869	235.4052	-18.2921	1E-4
1.010089E+2	251.8018	251.8429	-41.1280	1E-4
9.684676E+1	262.7878	262.8022	-14.3539	1E-4
9.130051E+1	279.0297	279.0223	7.3770	1E-4
8.924815E+1	285.5928	285.5670	25.8438	1E-4
8.602134E+1	296.5817	296.5510	30.6829	1E-4
8.231539E+1	310.3736	310.4003	-26.7354	1E-4
